Freq[Hz]     dBSPL  Phase[Deg]
5.00000      0.753    -0.070
5.07273      0.753    -0.071
5.14651      0.753    -0.072
5.22137      0.753    -0.073
5.29732      0.753    -0.074
5.37437      0.753    -0.075
5.45254      0.753    -0.076
5.53185      0.753    -0.077
5.61231      0.753    -0.078
5.69394      0.753    -0.079
5.77676      0.753    -0.081
5.86079      0.753    -0.082
5.94604      0.753    -0.083
6.03252      0.753    -0.084
6.12027      0.753    -0.085
6.20929      0.753    -0.086
6.29961      0.753    -0.088
6.39124      0.754    -0.089
6.48420      0.754    -0.090
6.57851      0.754    -0.091
6.67420      0.754    -0.093
6.77128      0.754    -0.094
6.86977      0.754    -0.095
6.96969      0.754    -0.097
7.07107      0.754    -0.098
7.17392      0.754    -0.100
7.27827      0.754    -0.101
7.38413      0.754    -0.103
7.49154      0.754    -0.104
7.60050      0.754    -0.105
7.71105      0.755    -0.107
7.82321      0.755    -0.109
7.93701      0.755    -0.110
8.05245      0.755    -0.112
8.16958      0.755    -0.113
8.28841      0.755    -0.115
8.40896      0.755    -0.117
8.53128      0.755    -0.118
8.65537      0.755    -0.120
8.78126      0.756    -0.122
8.90899      0.756    -0.124
9.03857      0.756    -0.125
9.17004      0.756    -0.127
9.30342      0.756    -0.129
9.43874      0.756    -0.131
9.57603      0.756    -0.133
9.71532      0.756    -0.135
9.85663      0.757    -0.137
10.0000      0.757    -0.139
10.1455      0.757    -0.141
10.2930      0.757    -0.143
10.4427      0.757    -0.145
10.5946      0.757    -0.147
10.7487      0.758    -0.149
10.9051      0.758    -0.151
11.0637      0.758    -0.154
11.2246      0.758    -0.156
11.3879      0.758    -0.158
11.5535      0.759    -0.161
11.7216      0.759    -0.163
11.8921      0.759    -0.165
12.0650      0.759    -0.168
12.2405      0.759    -0.170
12.4186      0.760    -0.173
12.5992      0.760    -0.175
12.7825      0.760    -0.178
12.9684      0.760    -0.181
13.1570      0.761    -0.183
13.3484      0.761    -0.186
13.5426      0.761    -0.189
13.7395      0.762    -0.192
13.9394      0.762    -0.195
14.1421      0.762    -0.198
14.3478      0.762    -0.201
14.5565      0.763    -0.204
14.7683      0.763    -0.207
14.9831      0.763    -0.210
15.2010      0.764    -0.213
15.4221      0.764    -0.217
15.6464      0.765    -0.221
15.8740      0.765    -0.225
16.1049      0.765    -0.228
16.3392      0.766    -0.232
16.5768      0.766    -0.236
16.8179      0.767    -0.240
17.0626      0.767    -0.244
17.3107      0.767    -0.249
17.5625      0.768    -0.253
17.8180      0.768    -0.257
18.0771      0.769    -0.262
18.3401      0.769    -0.266
18.6068      0.770    -0.271
18.8775      0.770    -0.275
19.1521      0.771    -0.280
19.4306      0.772    -0.285
19.7133      0.772    -0.290
20.0000      0.773    -0.295
20.2909      0.773    -0.300
20.5860      0.774    -0.305
20.8855      0.775    -0.310
21.1893      0.775    -0.315
21.4975      0.776    -0.321
21.8102      0.777    -0.326
22.1274      0.777    -0.332
22.4492      0.778    -0.338
22.7758      0.779    -0.344
23.1071      0.780    -0.350
23.4432      0.781    -0.356
23.7841      0.781    -0.362
24.1301      0.782    -0.368
24.4811      0.783    -0.375
24.8372      0.784    -0.382
25.1984      0.785    -0.388
25.5649      0.786    -0.395
25.9368      0.787    -0.402
26.3141      0.788    -0.409
26.6968      0.789    -0.416
27.0851      0.790    -0.424
27.4791      0.791    -0.432
27.8788      0.793    -0.439
28.2843      0.794    -0.447
28.6957      0.795    -0.455
29.1131      0.796    -0.463
29.5365      0.797    -0.472
29.9661      0.799    -0.480
30.4020      0.800    -0.489
30.8442      0.802    -0.498
31.2929      0.803    -0.507
31.7480      0.804    -0.517
32.2098      0.806    -0.526
32.6783      0.808    -0.536
33.1536      0.809    -0.546
33.6359      0.811    -0.556
34.1251      0.812    -0.567
34.6215      0.814    -0.577
35.1250      0.816    -0.588
35.6359      0.818    -0.599
36.1543      0.820    -0.611
36.6802      0.822    -0.623
37.2137      0.824    -0.635
37.7550      0.826    -0.647
38.3041      0.828    -0.659
38.8613      0.830    -0.672
39.4265      0.832    -0.685
40.0000      0.834    -0.699
40.5818      0.837    -0.713
41.1721      0.839    -0.727
41.7710      0.842    -0.741
42.3785      0.844    -0.756
42.9949      0.847    -0.772
43.6203      0.849    -0.787
44.2548      0.852    -0.803
44.8985      0.855    -0.820
45.5515      0.858    -0.837
46.2141      0.861    -0.854
46.8863      0.864    -0.872
47.5683      0.867    -0.890
48.2602      0.870    -0.909
48.9621      0.874    -0.928
49.6743      0.877    -0.948
50.3968      0.880    -0.968
51.1299      0.884    -0.989
51.8736      0.888    -1.010
52.6281      0.891    -1.032
53.3936      0.895    -1.055
54.1702      0.899    -1.078
54.9581      0.903    -1.102
55.7575      0.907    -1.126
56.5685      0.911    -1.151
57.3914      0.916    -1.177
58.2261      0.920    -1.204
59.0730      0.925    -1.231
59.9323      0.930    -1.260
60.8040      0.934    -1.289
61.6884      0.939    -1.318
62.5857      0.944    -1.349
63.4960      0.949    -1.381
64.4196      0.955    -1.413
65.3566      0.960    -1.447
66.3073      0.966    -1.481
67.2717      0.971    -1.517
68.2502      0.977    -1.553
69.2429      0.983    -1.591
70.2501      0.989    -1.630
71.2719      0.995    -1.669
72.3086      1.001    -1.711
73.3603      1.008    -1.753
74.4274      1.014    -1.797
75.5099      1.021    -1.842
76.6083      1.028    -1.888
77.7226      1.035    -1.935
78.8531      1.042    -1.985
80.0000      1.050    -2.035
81.1636      1.057    -2.087
82.3442      1.065    -2.141
83.5419      1.072    -2.197
84.7570      1.080    -2.254
85.9899      1.088    -2.312
87.2406      1.097    -2.373
88.5096      1.105    -2.436
89.7970      1.114    -2.500
91.1031      1.122    -2.566
92.4282      1.131    -2.635
93.7726      1.140    -2.705
95.1366      1.149    -2.778
96.5204      1.159    -2.853
97.9243      1.168    -2.930
99.3486      1.178    -3.009
100.794      1.188    -3.091
102.260      1.198    -3.176
103.747      1.208    -3.262
105.256      1.218    -3.352
106.787      1.228    -3.444
108.340      1.239    -3.539
109.916      1.250    -3.637
111.515      1.261    -3.737
113.137      1.271    -3.841
114.783      1.283    -3.948
116.452      1.294    -4.057
118.146      1.305    -4.170
119.865      1.317    -4.287
121.608      1.328    -4.407
123.377      1.340    -4.530
125.171      1.351    -4.656
126.992      1.363    -4.787
128.839      1.375    -4.920
130.713      1.387    -5.058
132.615      1.399    -5.200
134.543      1.411    -5.345
136.500      1.424    -5.495
138.486      1.436    -5.648
140.500      1.448    -5.806
142.544      1.460    -5.968
144.617      1.472    -6.134
146.721      1.485    -6.305
148.855      1.497    -6.479
151.020      1.509    -6.659
153.217      1.521    -6.843
155.445      1.533    -7.031
157.706      1.545    -7.225
160.000      1.557    -7.423
162.327      1.569    -7.626
164.688      1.580    -7.833
167.084      1.592    -8.046
169.514      1.603    -8.263
171.980      1.614    -8.486
174.481      1.625    -8.713
177.019      1.636    -8.945
179.594      1.646    -9.183
182.206      1.656    -9.425
184.856      1.666    -9.673
187.545      1.676    -9.925
190.273      1.685   -10.182
193.041      1.694   -10.445
195.849      1.703   -10.712
198.697      1.711   -10.985
201.587      1.719   -11.262
204.520      1.726   -11.543
207.494      1.733   -11.830
210.512      1.739   -12.122
213.574      1.745   -12.418
216.681      1.750   -12.718
219.833      1.755   -13.023
223.030      1.760   -13.332
226.274      1.763   -13.645
229.565      1.767   -13.962
232.905      1.769   -14.283
236.292      1.771   -14.607
239.729      1.772   -14.935
243.216      1.773   -15.266
246.754      1.773   -15.601
250.343      1.772   -15.938
253.984      1.771   -16.278
257.678      1.769   -16.620
261.426      1.767   -16.964
265.229      1.764   -17.310
269.087      1.760   -17.658
273.001      1.756   -18.007
276.972      1.751   -18.357
281.000      1.745   -18.708
285.088      1.739   -19.060
289.234      1.733   -19.412
293.441      1.726   -19.764
297.709      1.719   -20.116
302.040      1.711   -20.468
306.433      1.703   -20.819
310.890      1.695   -21.169
315.412      1.686   -21.519
320.000      1.678   -21.867
324.655      1.669   -22.215
329.377      1.661   -22.562
334.168      1.653   -22.907
339.028      1.645   -23.252
343.959      1.637   -23.596
348.962      1.630   -23.939
354.038      1.624   -24.282
359.188      1.618   -24.625
364.412      1.613   -24.969
369.713      1.609   -25.314
375.090      1.605   -25.661
380.546      1.603   -26.010
386.081      1.602   -26.363
391.697      1.602   -26.720
397.394      1.604   -27.082
403.175      1.607   -27.451
409.039      1.611   -27.827
414.989      1.617   -28.212
421.025      1.624   -28.607
427.149      1.632   -29.014
433.362      1.642   -29.433
439.665      1.653   -29.866
446.060      1.665   -30.315
452.548      1.678   -30.782
459.131      1.693   -31.266
465.809      1.708   -31.770
472.584      1.723   -32.295
479.458      1.739   -32.841
486.432      1.755   -33.409
493.507      1.771   -34.002
500.686      1.787   -34.618
507.968      1.802   -35.259
515.357      1.816   -35.923
522.853      1.828   -36.612
530.458      1.839   -37.326
538.174      1.848   -38.063
546.002      1.855   -38.823
553.943      1.859   -39.603
562.001      1.860   -40.404
570.175      1.859   -41.224
578.469      1.854   -42.060
586.883      1.845   -42.911
595.419      1.833   -43.773
604.080      1.817   -44.645
612.866      1.797   -45.522
621.780      1.773   -46.405
630.824      1.745   -47.287
640.000      1.714   -48.167
649.309      1.679   -49.041
658.753      1.641   -49.906
668.335      1.601   -50.760
678.056      1.558   -51.601
687.919      1.513   -52.426
697.925      1.467   -53.234
708.077      1.421   -54.024
718.376      1.375   -54.797
728.825      1.330   -55.554
739.426      1.287   -56.297
750.181      1.247   -57.029
761.093      1.210   -57.753
772.163      1.176   -58.475
783.394      1.147   -59.203
794.789      1.123   -59.942
806.349      1.103   -60.699
818.078      1.087   -61.482
829.977      1.075   -62.299
842.050      1.067   -63.158
854.298      1.061   -64.063
866.724      1.056   -65.020
879.330      1.051   -66.032
892.120      1.045   -67.102
905.097      1.036   -68.231
918.262      1.023   -69.415
931.618      1.004   -70.652
945.169      0.979   -71.935
958.917      0.946   -73.258
972.864      0.904   -74.612
987.015      0.852   -75.987
1001.37      0.791   -77.371
1015.94      0.721   -78.753
1030.71      0.641   -80.122
1045.71      0.554   -81.468
1060.92      0.460   -82.780
1076.35      0.362   -84.052
1092.00      0.260   -85.279
1107.89      0.159   -86.461
1124.00      0.059   -87.604
1140.35     -0.036   -88.715
1156.94     -0.124   -89.807
1173.77     -0.206   -90.898
1190.84     -0.279   -92.008
1208.16     -0.344   -93.158
1225.73     -0.403   -94.368
1243.56     -0.458   -95.656
1261.65     -0.511   -97.033
1280.00     -0.567   -98.508
1298.62     -0.629  -100.081
1317.51     -0.701  -101.744
1336.67     -0.785  -103.483
1356.11     -0.884  -105.279
1375.84     -1.001  -107.109
1395.85     -1.134  -108.947
1416.15     -1.285  -110.764
1436.75     -1.449  -112.537
1457.65     -1.625  -114.246
1478.85     -1.807  -115.882
1500.36     -1.991  -117.442
1522.19     -2.172  -118.940
1544.33     -2.346  -120.401
1566.79     -2.509  -121.860
1589.58     -2.663  -123.361
1612.70     -2.809  -124.943
1636.16     -2.951  -126.640
1659.95     -3.097  -128.474
1684.10     -3.253  -130.452
1708.60     -3.427  -132.559
1733.45     -3.624  -134.764
1758.66     -3.850  -137.025
1784.24     -4.105  -139.293
1810.19     -4.387  -141.517
1836.52     -4.693  -143.653
1863.24     -5.015  -145.672
1890.34     -5.343  -147.573
1917.83     -5.670  -149.383
1945.73     -5.989  -151.155
1974.03     -6.298  -152.960
2002.74     -6.602  -154.876
2031.87     -6.909  -156.964
2061.43     -7.232  -159.254
2091.41     -7.585  -161.740
2121.83     -7.981  -164.378
2152.69     -8.429  -167.097
2184.01     -8.933  -169.809
2215.77     -9.490  -172.429
2248.00    -10.093  -174.893
2280.70    -10.730  -177.179
2313.87    -11.392  -179.319
2347.53    -12.073   178.606
2381.68    -12.776   176.485
2416.32    -13.517   174.211
2451.46    -14.323   171.721
2487.12    -15.226   169.018
2523.30    -16.260   166.173
2560.00    -17.462   163.302
2597.24    -18.868   160.546
2635.01    -20.528   158.041
2673.34    -22.522   155.896
2712.23    -25.017   154.237
2751.68    -28.397   153.414
2791.70    -33.829   155.153
2832.31    -49.613  -146.963
2873.50    -38.067   -68.637
2915.30    -31.071   -54.163
2957.70    -27.298   -53.283
3000.72    -24.699   -54.818
3044.37    -22.735   -57.497
3088.65    -21.200   -60.893
3133.58    -19.997   -64.670
3179.16    -19.057   -68.497
3225.40    -18.315   -72.091
3272.31    -17.698   -75.314
3319.91    -17.137   -78.241
3368.20    -16.588   -81.160
3417.19    -16.051   -84.417
3466.89    -15.560   -88.219
3517.32    -15.160   -92.521
3568.48    -14.879   -97.077
3620.39    -14.714  -101.573
3673.05    -14.630  -105.782
3726.47    -14.577  -109.701
3780.67    -14.527  -113.552
3835.67    -14.485  -117.621
3891.46    -14.490  -122.028
3948.06    -14.580  -126.634
4005.49    -14.760  -131.148
4063.75    -14.995  -135.369
4122.86    -15.233  -139.391
4182.82    -15.458  -143.604
4243.66    -15.715  -148.377
4305.39    -16.083  -153.712
4368.01    -16.617  -159.198
4431.55    -17.306  -164.293
4496.01    -18.076  -168.759
4561.40    -18.856  -172.956
4627.75    -19.668  -177.597
4695.06    -20.634   176.945
4763.35    -21.892   170.995
4832.64    -23.516   165.253
4902.93    -25.525   160.116
4974.24    -28.022   155.216
5046.60    -31.456   149.676
5120.00    -37.310   141.931
5194.47    -60.012  -159.078
5270.03    -39.417   -48.783
5346.68    -33.047   -53.017
5424.45    -29.680   -59.054
5503.35    -27.428   -64.382
5583.40    -25.643   -69.573
5664.61    -24.162   -75.723
5747.01    -23.039   -82.881
5830.60    -22.272   -90.140
5915.41    -21.730   -96.931
6001.45    -21.310  -103.620
6088.74    -21.047  -110.556
6177.30    -20.974  -117.247
6267.15    -20.979  -123.298
6358.31    -20.963  -129.553
6450.80    -21.055  -136.926
6544.62    -21.434  -144.718
6639.82    -22.031  -151.684
6736.40    -22.666  -158.223
6834.38    -23.425  -165.713
6933.79    -24.568  -173.813
7034.64    -26.143   178.976
7136.96    -28.063   172.728
7240.77    -30.580   166.632
7346.09    -34.383   162.206
7452.94    -41.392   169.743
7561.35    -54.554  -126.326
7671.33    -38.849   -60.464
7782.91    -33.515   -63.955
7896.12    -30.414   -72.000
8010.97    -28.548   -80.535
8127.49    -27.214   -88.075
8245.71    -26.108   -96.379
8365.65    -25.410  -105.851
8487.33    -25.097  -114.895
8610.78    -24.941  -123.565
8736.03    -24.987  -132.848
8863.09    -25.323  -142.226
8992.01    -25.887  -151.757
9122.80    -26.855  -161.973
9255.50    -28.395  -171.136
9390.12    -30.333  -178.528
9526.70    -32.963   174.466
9665.27    -37.277   170.801
9805.86    -46.736  -161.634
9948.49    -47.751  -105.991
10093.2    -37.808   -74.248
10240.0    -33.771   -79.881
10388.9    -31.333   -86.914
10540.1    -29.495   -97.157
10693.4    -28.501  -109.065
10848.9    -28.055  -120.842
11006.7    -28.089  -132.066
11166.8    -28.318  -143.016
11329.2    -29.062  -155.201
11494.0    -30.295  -165.990
11661.2    -32.070  -178.034
11830.8    -35.127   170.983
12002.9    -40.289   162.338
12177.5    -56.881  -147.606
12354.6    -44.233   -77.884
12534.3    -37.356   -73.720
12716.6    -33.818   -86.342
12901.6    -32.176   -99.573
13089.2    -31.191  -111.840
13279.6    -30.704  -124.687
13472.8    -30.719  -138.891
13668.8    -31.589  -153.540
13867.6    -33.127  -166.589
14069.3    -35.771  -179.602
14273.9    -40.451   172.041
14481.5    -54.021  -142.892
14692.2    -45.289   -88.170
14905.9    -38.098   -83.843
15122.7    -35.443   -94.642
15342.7    -33.459  -106.827
15565.8    -32.649  -121.602
15792.2    -32.675  -138.193
16021.9    -33.552  -153.305
16255.0    -35.632  -168.137
16491.4    -39.351  -179.676
16731.3    -47.930  -164.343
16974.7    -51.538  -106.099
17221.6    -40.567   -86.689
17472.1    -36.513   -99.659
17726.2    -35.111  -115.144
17984.0    -34.607  -131.650
18245.6    -34.922  -149.384
18511.0    -36.853  -164.686
18780.2    -40.300  -177.526
19053.4    -49.315  -162.894
19330.5    -51.524  -112.874
19611.7    -41.057   -90.059
19897.0    -37.581  -105.033
20186.4    -36.358  -123.298
20480.0    -36.220  -142.755
20777.9    -37.648  -161.738
21080.1    -41.269  -177.502
21386.7    -51.047  -156.974
21697.8    -49.600  -109.614
22013.4    -41.584  -100.240
22333.6    -38.279  -114.355
22658.4    -37.353  -136.424
22988.0    -38.230  -156.937
23322.4    -41.241  -176.002
23661.6    -49.237  -169.327
24005.8    -52.720  -127.131
24355.0    -42.356  -108.184
24709.2    -39.091  -129.657
25068.6    -38.654  -155.057
25433.2    -40.217   175.881
25803.2    -45.069   138.933
26178.5    -77.379     8.848
26559.3    -45.450   -58.648
26945.6    -40.933   -97.268
27337.5    -39.895  -130.773
27735.2    -41.313  -160.903
28138.6    -46.384   168.928
28547.9    -67.497   -96.412
28963.1    -45.197   -68.537
29384.4    -41.458  -100.488
29811.8    -41.138  -131.695
30245.4    -44.006  -157.417
30685.3    -54.887  -135.055
31131.7    -49.252  -103.256
31584.5    -42.986  -108.990
32043.9    -42.004  -133.309
32510.0    -44.162  -160.098
32982.8    -54.157  -147.204
33462.6    -50.479  -111.607
33949.3    -43.357  -119.916
34443.1    -42.781  -150.118
34944.1    -46.236   176.847
35452.4    -63.553  -129.668
35968.0    -48.001   -87.152
36491.2    -43.376  -117.592
37022.0    -44.725  -148.561
37560.5    -52.475  -148.963
38106.8    -53.416  -120.321
38661.1    -45.026  -118.548
39223.4    -44.805  -148.157
39793.9    -50.934  -156.793
