Freq[Hz]     dBSPL  Phase[Deg]
5.00000      0.450    -0.196
5.07273      0.450    -0.199
5.14651      0.450    -0.202
5.22137      0.450    -0.205
5.29732      0.450    -0.208
5.37437      0.450    -0.211
5.45254      0.450    -0.214
5.53185      0.450    -0.217
5.61231      0.450    -0.220
5.69394      0.450    -0.223
5.77676      0.450    -0.227
5.86079      0.450    -0.230
5.94604      0.451    -0.233
6.03252      0.451    -0.236
6.12027      0.451    -0.240
6.20929      0.451    -0.243
6.29961      0.451    -0.247
6.39124      0.451    -0.250
6.48420      0.451    -0.254
6.57851      0.451    -0.258
6.67420      0.451    -0.261
6.77128      0.451    -0.265
6.86977      0.451    -0.269
6.96969      0.451    -0.273
7.07107      0.451    -0.277
7.17392      0.451    -0.281
7.27827      0.451    -0.285
7.38413      0.451    -0.289
7.49154      0.451    -0.293
7.60050      0.451    -0.297
7.71105      0.451    -0.302
7.82321      0.451    -0.306
7.93701      0.451    -0.311
8.05245      0.451    -0.315
8.16958      0.451    -0.320
8.28841      0.451    -0.324
8.40896      0.451    -0.329
8.53128      0.451    -0.334
8.65537      0.452    -0.338
8.78126      0.452    -0.343
8.90899      0.452    -0.348
9.03857      0.452    -0.353
9.17004      0.452    -0.359
9.30342      0.452    -0.364
9.43874      0.452    -0.369
9.57603      0.452    -0.374
9.71532      0.452    -0.380
9.85663      0.452    -0.385
10.0000      0.452    -0.391
10.1455      0.452    -0.397
10.2930      0.452    -0.402
10.4427      0.452    -0.408
10.5946      0.453    -0.414
10.7487      0.453    -0.420
10.9051      0.453    -0.426
11.0637      0.453    -0.432
11.2246      0.453    -0.439
11.3879      0.453    -0.445
11.5535      0.453    -0.451
11.7216      0.453    -0.458
11.8921      0.453    -0.465
12.0650      0.453    -0.471
12.2405      0.453    -0.478
12.4186      0.454    -0.485
12.5992      0.454    -0.492
12.7825      0.454    -0.499
12.9684      0.454    -0.507
13.1570      0.454    -0.514
13.3484      0.454    -0.522
13.5426      0.454    -0.529
13.7395      0.454    -0.537
13.9394      0.455    -0.545
14.1421      0.455    -0.553
14.3478      0.455    -0.561
14.5565      0.455    -0.569
14.7683      0.455    -0.577
14.9831      0.455    -0.585
15.2010      0.456    -0.594
15.4221      0.456    -0.603
15.6464      0.456    -0.613
15.8740      0.456    -0.622
16.1049      0.456    -0.631
16.3392      0.457    -0.641
16.5768      0.457    -0.651
16.8179      0.457    -0.660
17.0626      0.457    -0.670
17.3107      0.457    -0.681
17.5625      0.458    -0.691
17.8180      0.458    -0.701
18.0771      0.458    -0.712
18.3401      0.458    -0.723
18.6068      0.459    -0.734
18.8775      0.459    -0.745
19.1521      0.459    -0.756
19.4306      0.459    -0.767
19.7133      0.460    -0.779
20.0000      0.460    -0.791
20.2909      0.460    -0.803
20.5860      0.461    -0.815
20.8855      0.461    -0.827
21.1893      0.461    -0.840
21.4975      0.462    -0.853
21.8102      0.462    -0.865
22.1274      0.462    -0.879
22.4492      0.463    -0.892
22.7758      0.463    -0.905
23.1071      0.463    -0.919
23.4432      0.464    -0.933
23.7841      0.464    -0.947
24.1301      0.465    -0.961
24.4811      0.465    -0.976
24.8372      0.465    -0.991
25.1984      0.466    -1.006
25.5649      0.466    -1.021
25.9368      0.467    -1.036
26.3141      0.467    -1.052
26.6968      0.468    -1.068
27.0851      0.468    -1.084
27.4791      0.469    -1.101
27.8788      0.470    -1.117
28.2843      0.470    -1.134
28.6957      0.471    -1.152
29.1131      0.471    -1.169
29.5365      0.472    -1.187
29.9661      0.473    -1.205
30.4020      0.473    -1.223
30.8442      0.474    -1.242
31.2929      0.475    -1.261
31.7480      0.475    -1.280
32.2098      0.476    -1.299
32.6783      0.477    -1.319
33.1536      0.478    -1.339
33.6359      0.479    -1.360
34.1251      0.479    -1.381
34.6215      0.480    -1.402
35.1250      0.481    -1.423
35.6359      0.482    -1.445
36.1543      0.483    -1.467
36.6802      0.484    -1.490
37.2137      0.485    -1.512
37.7550      0.486    -1.536
38.3041      0.487    -1.559
38.8613      0.488    -1.583
39.4265      0.489    -1.608
40.0000      0.490    -1.633
40.5818      0.491    -1.658
41.1721      0.493    -1.683
41.7710      0.494    -1.709
42.3785      0.495    -1.736
42.9949      0.497    -1.763
43.6203      0.498    -1.790
44.2548      0.499    -1.818
44.8985      0.501    -1.846
45.5515      0.502    -1.875
46.2141      0.504    -1.904
46.8863      0.505    -1.934
47.5683      0.507    -1.964
48.2602      0.508    -1.995
48.9621      0.510    -2.026
49.6743      0.512    -2.058
50.3968      0.514    -2.091
51.1299      0.515    -2.124
51.8736      0.517    -2.157
52.6281      0.519    -2.191
53.3936      0.521    -2.226
54.1702      0.523    -2.261
54.9581      0.525    -2.297
55.7575      0.527    -2.334
56.5685      0.530    -2.371
57.3914      0.532    -2.409
58.2261      0.534    -2.448
59.0730      0.537    -2.487
59.9323      0.539    -2.527
60.8040      0.542    -2.568
61.6884      0.544    -2.610
62.5857      0.547    -2.652
63.4960      0.549    -2.695
64.4196      0.552    -2.739
65.3566      0.555    -2.784
66.3073      0.558    -2.829
67.2717      0.561    -2.876
68.2502      0.564    -2.923
69.2429      0.567    -2.971
70.2501      0.571    -3.020
71.2719      0.574    -3.070
72.3086      0.577    -3.121
73.3603      0.581    -3.173
74.4274      0.585    -3.226
75.5099      0.588    -3.281
76.6083      0.592    -3.336
77.7226      0.596    -3.392
78.8531      0.600    -3.449
80.0000      0.604    -3.508
81.1636      0.608    -3.568
82.3442      0.613    -3.629
83.5419      0.617    -3.691
84.7570      0.622    -3.754
85.9899      0.626    -3.819
87.2406      0.631    -3.885
88.5096      0.636    -3.953
89.7970      0.641    -4.022
91.1031      0.646    -4.092
92.4282      0.651    -4.164
93.7726      0.657    -4.238
95.1366      0.662    -4.313
96.5204      0.668    -4.389
97.9243      0.674    -4.467
99.3486      0.679    -4.547
100.794      0.686    -4.629
102.260      0.692    -4.713
103.747      0.698    -4.798
105.256      0.704    -4.885
106.787      0.711    -4.974
108.340      0.718    -5.065
109.916      0.725    -5.159
111.515      0.732    -5.254
113.137      0.739    -5.351
114.783      0.746    -5.451
116.452      0.754    -5.553
118.146      0.761    -5.657
119.865      0.769    -5.763
121.608      0.777    -5.873
123.377      0.785    -5.984
125.171      0.794    -6.098
126.992      0.802    -6.215
128.839      0.811    -6.334
130.713      0.819    -6.457
132.615      0.828    -6.582
134.543      0.837    -6.710
136.500      0.847    -6.841
138.486      0.856    -6.976
140.500      0.866    -7.113
142.544      0.875    -7.254
144.617      0.885    -7.398
146.721      0.895    -7.545
148.855      0.906    -7.696
151.020      0.916    -7.851
153.217      0.926    -8.009
155.445      0.937    -8.171
157.706      0.948    -8.337
160.000      0.959    -8.507
162.327      0.970    -8.681
164.688      0.981    -8.859
167.084      0.993    -9.042
169.514      1.004    -9.228
171.980      1.016    -9.419
174.481      1.028    -9.615
177.019      1.040    -9.816
179.594      1.052   -10.021
182.206      1.064   -10.231
184.856      1.076   -10.447
187.545      1.088   -10.667
190.273      1.101   -10.892
193.041      1.113   -11.123
195.849      1.126   -11.360
198.697      1.138   -11.601
201.587      1.151   -11.849
204.520      1.164   -12.102
207.494      1.176   -12.361
210.512      1.189   -12.626
213.574      1.202   -12.898
216.681      1.214   -13.175
219.833      1.227   -13.459
223.030      1.239   -13.749
226.274      1.252   -14.046
229.565      1.264   -14.349
232.905      1.277   -14.659
236.292      1.289   -14.976
239.729      1.301   -15.300
243.216      1.313   -15.631
246.754      1.325   -15.969
250.343      1.336   -16.314
253.984      1.348   -16.667
257.678      1.359   -17.027
261.426      1.370   -17.395
265.229      1.380   -17.770
269.087      1.391   -18.152
273.001      1.401   -18.543
276.972      1.410   -18.941
281.000      1.419   -19.347
285.088      1.428   -19.761
289.234      1.437   -20.183
293.441      1.445   -20.612
297.709      1.452   -21.050
302.040      1.459   -21.496
306.433      1.465   -21.950
310.890      1.471   -22.412
315.412      1.476   -22.882
320.000      1.481   -23.360
324.655      1.485   -23.846
329.377      1.488   -24.340
334.168      1.491   -24.842
339.028      1.493   -25.352
343.959      1.494   -25.870
348.962      1.494   -26.396
354.038      1.493   -26.929
359.188      1.492   -27.470
364.412      1.489   -28.019
369.713      1.486   -28.575
375.090      1.482   -29.138
380.546      1.476   -29.709
386.081      1.470   -30.287
391.697      1.463   -30.872
397.394      1.455   -31.463
403.175      1.445   -32.062
409.039      1.435   -32.666
414.989      1.423   -33.277
421.025      1.411   -33.894
427.149      1.397   -34.517
433.362      1.382   -35.145
439.665      1.366   -35.779
446.060      1.349   -36.418
452.548      1.331   -37.062
459.131      1.311   -37.712
465.809      1.291   -38.365
472.584      1.269   -39.023
479.458      1.246   -39.685
486.432      1.222   -40.350
493.507      1.197   -41.020
500.686      1.171   -41.693
507.968      1.144   -42.370
515.357      1.116   -43.049
522.853      1.087   -43.731
530.458      1.057   -44.416
538.174      1.025   -45.104
546.002      0.994   -45.794
553.943      0.961   -46.486
562.001      0.927   -47.180
570.175      0.893   -47.877
578.469      0.858   -48.577
586.883      0.823   -49.278
595.419      0.786   -49.982
604.080      0.750   -50.688
612.866      0.712   -51.396
621.780      0.675   -52.107
630.824      0.637   -52.821
640.000      0.599   -53.537
649.309      0.560   -54.257
658.753      0.521   -54.980
668.335      0.482   -55.706
678.056      0.443   -56.437
687.919      0.404   -57.173
697.925      0.365   -57.912
708.077      0.326   -58.657
718.376      0.287   -59.407
728.825      0.249   -60.164
739.426      0.210   -60.927
750.181      0.172   -61.698
761.093      0.134   -62.475
772.163      0.096   -63.261
783.394      0.059   -64.057
794.789      0.022   -64.863
806.349     -0.015   -65.678
818.078     -0.051   -66.505
829.977     -0.086   -67.345
842.050     -0.121   -68.199
854.298     -0.156   -69.067
866.724     -0.190   -69.950
879.330     -0.223   -70.851
892.120     -0.256   -71.770
905.097     -0.289   -72.710
918.262     -0.321   -73.671
931.618     -0.353   -74.656
945.169     -0.385   -75.665
958.917     -0.416   -76.700
972.864     -0.448   -77.765
987.015     -0.481   -78.860
1001.37     -0.514   -79.987
1015.94     -0.548   -81.146
1030.71     -0.584   -82.340
1045.71     -0.621   -83.571
1060.92     -0.661   -84.838
1076.35     -0.703   -86.142
1092.00     -0.749   -87.484
1107.89     -0.798   -88.863
1124.00     -0.851   -90.280
1140.35     -0.909   -91.733
1156.94     -0.973   -93.221
1173.77     -1.042   -94.741
1190.84     -1.117   -96.292
1208.16     -1.198   -97.872
1225.73     -1.287   -99.478
1243.56     -1.383  -101.105
1261.65     -1.486  -102.750
1280.00     -1.597  -104.411
1298.62     -1.716  -106.083
1317.51     -1.842  -107.762
1336.67     -1.976  -109.445
1356.11     -2.117  -111.129
1375.84     -2.265  -112.811
1395.85     -2.419  -114.489
1416.15     -2.580  -116.160
1436.75     -2.747  -117.824
1457.65     -2.919  -119.481
1478.85     -3.095  -121.133
1500.36     -3.276  -122.779
1522.19     -3.461  -124.422
1544.33     -3.650  -126.065
1566.79     -3.842  -127.712
1589.58     -4.038  -129.367
1612.70     -4.237  -131.034
1636.16     -4.440  -132.716
1659.95     -4.647  -134.417
1684.10     -4.859  -136.145
1708.60     -5.075  -137.901
1733.45     -5.297  -139.690
1758.66     -5.526  -141.515
1784.24     -5.761  -143.382
1810.19     -6.005  -145.294
1836.52     -6.258  -147.255
1863.24     -6.522  -149.266
1890.34     -6.798  -151.333
1917.83     -7.087  -153.458
1945.73     -7.392  -155.641
1974.03     -7.715  -157.883
2002.74     -8.058  -160.183
2031.87     -8.423  -162.540
2061.43     -8.812  -164.950
2091.41     -9.229  -167.408
2121.83     -9.676  -169.907
2152.69    -10.155  -172.444
2184.01    -10.670  -175.010
2215.77    -11.224  -177.598
2248.00    -11.821   179.800
2280.70    -12.465   177.188
2313.87    -13.160   174.571
2347.53    -13.914   171.959
2381.68    -14.734   169.355
2416.32    -15.632   166.767
2451.46    -16.619   164.198
2487.12    -17.715   161.657
2523.30    -18.945   159.150
2560.00    -20.349   156.687
2597.24    -21.985   154.277
2635.01    -23.955   151.954
2673.34    -26.444   149.790
2712.23    -29.862   147.997
2751.68    -35.429   147.241
2791.70    -54.063  -142.042
2832.31    -38.330   -63.182
2873.50    -31.880   -56.173
2915.30    -28.344   -57.196
2957.70    -25.934   -59.472
3000.72    -24.124   -62.181
3044.37    -22.686   -65.112
3088.65    -21.502   -68.196
3133.58    -20.505   -71.406
3179.16    -19.650   -74.734
3225.40    -18.910   -78.179
3272.31    -18.264   -81.749
3319.91    -17.699   -85.453
3368.20    -17.206   -89.308
3417.19    -16.780   -93.330
3466.89    -16.423   -97.527
3517.32    -16.137  -101.882
3568.48    -15.924  -106.355
3620.39    -15.787  -110.885
3673.05    -15.721  -115.395
3726.47    -15.719  -119.817
3780.67    -15.767  -124.116
3835.67    -15.850  -128.314
3891.46    -15.959  -132.476
3948.06    -16.092  -136.703
4005.49    -16.257  -141.083
4063.75    -16.469  -145.659
4122.86    -16.743  -150.409
4182.82    -17.090  -155.275
4243.66    -17.511  -160.205
4305.39    -18.005  -165.188
4368.01    -18.575  -170.268
4431.55    -19.233  -175.521
4496.01    -20.005   178.993
4561.40    -20.926   173.280
4627.75    -22.032   167.399
4695.06    -23.362   161.405
4763.35    -24.967   155.271
4832.64    -26.935   148.777
4902.93    -29.461   141.341
4974.24    -33.005   131.345
5046.60    -39.039   109.910
5120.00    -74.282  -138.345
5194.47    -39.864   -23.294
5270.03    -33.955   -44.723
5346.68    -30.623   -55.413
5424.45    -28.337   -63.682
5503.35    -26.619   -71.122
5583.40    -25.271   -78.382
5664.61    -24.214   -85.745
5747.01    -23.416   -93.208
5830.60    -22.847  -100.595
5915.41    -22.462  -107.765
6001.45    -22.216  -114.744
6088.74    -22.092  -121.656
6177.30    -22.094  -128.543
6267.15    -22.220  -135.313
6358.31    -22.445  -141.921
6450.80    -22.742  -148.613
6544.62    -23.147  -155.805
6639.82    -23.754  -163.624
6736.40    -24.661  -171.682
6834.38    -25.911  -179.329
6933.79    -27.494   173.868
7034.64    -29.446   167.830
7136.96    -31.997   162.373
7240.77    -35.803   158.691
7346.09    -43.150   170.122
7452.94    -53.221  -125.294
7561.35    -39.349   -72.566
7671.33    -34.432   -76.016
7782.91    -31.589   -82.969
7896.12    -29.712   -90.485
8010.97    -28.321   -98.183
8127.49    -27.251  -106.726
8245.71    -26.556  -116.229
8365.65    -26.265  -125.763
8487.33    -26.245  -134.535
8610.78    -26.348  -143.015
8736.03    -26.618  -152.166
8863.09    -27.217  -161.989
8992.01    -28.237  -171.735
9122.80    -29.710   179.228
9255.50    -31.696   171.243
9390.12    -34.435   164.508
9526.70    -38.806   160.904
9665.27    -49.153  -167.497
9805.86    -47.224  -110.519
9948.49    -38.630   -86.949
10093.2    -34.648   -92.096
10240.0    -32.291  -101.299
10388.9    -30.817  -111.321
10540.1    -29.813  -121.802
10693.4    -29.254  -133.614
10848.9    -29.277  -145.570
11006.7    -29.641  -156.334
11166.8    -30.198  -167.787
11329.2    -31.328   179.115
11494.0    -33.339   165.839
11661.2    -36.581   153.423
11830.8    -42.127   142.973
12002.9    -61.431  -151.924
12177.5    -44.610   -80.297
12354.6    -38.207   -84.396
12534.3    -34.912   -97.330
12716.6    -33.089  -111.076
12901.6    -32.086  -124.977
13089.2    -31.732  -138.598
13279.6    -31.797  -152.417
13472.8    -32.555  -167.763
13668.8    -34.332   177.929
13867.6    -37.042   165.881
14069.3    -41.819   154.968
14273.9    -56.875  -158.661
14481.5    -46.305   -99.560
14692.2    -39.659   -95.954
14905.9    -36.265  -107.952
15122.7    -34.470  -123.492
15342.7    -33.799  -139.985
15565.8    -34.012  -155.597
15792.2    -34.963  -171.239
16021.9    -37.067   174.022
16255.0    -41.075   162.841
16491.4    -50.174  -175.583
16731.3    -50.991  -127.812
16974.7    -41.671  -103.598
17221.6    -37.772  -116.154
17472.1    -36.047  -133.277
17726.2    -35.618  -149.650
17984.0    -35.984  -167.488
18245.6    -37.953   174.819
18511.0    -41.843   162.609
18780.2    -51.346  -177.377
19053.4    -50.608  -130.806
19330.5    -42.040  -115.803
19611.7    -38.804  -129.730
19897.0    -37.412  -147.979
20186.4    -37.504  -166.531
20480.0    -39.048   174.507
20777.9    -42.679   159.243
21080.1    -53.303  -178.286
21386.7    -50.280  -133.390
21697.8    -42.443  -124.024
22013.4    -39.492  -141.816
22333.6    -38.722  -162.990
22658.4    -39.719   176.499
22988.0    -43.011   157.065
23322.4    -51.717   171.740
23661.6    -52.383  -148.692
24005.8    -43.337  -134.333
24355.0    -40.406  -157.423
24709.2    -40.036   178.901
25068.6    -41.525   148.463
25433.2    -46.892   113.411
25803.2    -77.007  -167.854
26178.5    -46.639   -86.206
26559.3    -42.206  -126.852
26945.6    -40.957  -157.817
27337.5    -42.502   171.519
27735.2    -48.047   150.689
28138.6    -64.671  -158.618
28547.9    -46.320  -113.636
28963.1    -42.635  -142.713
29384.4    -42.284  -173.200
29811.8    -45.360   159.871
30245.4    -57.542  -179.429
30685.3    -50.730  -140.159
31131.7    -44.388  -148.720
31584.5    -43.297  -176.813
32043.9    -45.614   157.184
32510.0    -56.741   171.318
32982.8    -51.513  -156.337
33462.6    -44.900  -166.320
33949.3    -44.233   160.951
34443.1    -47.924   118.439
34944.1    -74.099  -179.834
35452.4    -48.835  -115.403
35968.0    -45.142  -158.407
36491.2    -46.201   167.139
37022.0    -54.901   168.184
37560.5    -53.368  -166.535
38106.8    -46.356  -174.271
38661.1    -46.115   153.392
39223.4    -53.045   139.581
39793.9    -55.835   149.045
