Freq[Hz]     dBSPL  Phase[Deg]
5.00000      1.220     0.200
5.07273      1.220     0.202
5.14651      1.220     0.205
5.22137      1.220     0.208
5.29732      1.220     0.212
5.37437      1.220     0.215
5.45254      1.220     0.218
5.53185      1.220     0.221
5.61231      1.220     0.224
5.69394      1.220     0.228
5.77676      1.220     0.231
5.86079      1.220     0.234
5.94604      1.220     0.238
6.03252      1.221     0.241
6.12027      1.221     0.245
6.20929      1.221     0.248
6.29961      1.221     0.252
6.39124      1.221     0.256
6.48420      1.221     0.259
6.57851      1.221     0.263
6.67420      1.221     0.267
6.77128      1.221     0.271
6.86977      1.221     0.275
6.96969      1.221     0.279
7.07107      1.221     0.283
7.17392      1.221     0.287
7.27827      1.222     0.292
7.38413      1.222     0.296
7.49154      1.222     0.300
7.60050      1.222     0.304
7.71105      1.222     0.309
7.82321      1.222     0.313
7.93701      1.222     0.318
8.05245      1.222     0.323
8.16958      1.222     0.327
8.28841      1.222     0.332
8.40896      1.223     0.337
8.53128      1.223     0.342
8.65537      1.223     0.347
8.78126      1.223     0.352
8.90899      1.223     0.357
9.03857      1.223     0.362
9.17004      1.223     0.368
9.30342      1.224     0.373
9.43874      1.224     0.378
9.57603      1.224     0.384
9.71532      1.224     0.390
9.85663      1.224     0.395
10.0000      1.224     0.401
10.1455      1.224     0.407
10.2930      1.225     0.413
10.4427      1.225     0.419
10.5946      1.225     0.425
10.7487      1.225     0.431
10.9051      1.225     0.437
11.0637      1.226     0.444
11.2246      1.226     0.450
11.3879      1.226     0.457
11.5535      1.226     0.463
11.7216      1.227     0.470
11.8921      1.227     0.477
12.0650      1.227     0.484
12.2405      1.227     0.491
12.4186      1.228     0.498
12.5992      1.228     0.505
12.7825      1.228     0.512
12.9684      1.228     0.520
13.1570      1.229     0.527
13.3484      1.229     0.535
13.5426      1.229     0.543
13.7395      1.230     0.551
13.9394      1.230     0.558
14.1421      1.230     0.567
14.3478      1.231     0.575
14.5565      1.231     0.583
14.7683      1.231     0.591
14.9831      1.232     0.600
15.2010      1.232     0.608
15.4221      1.233     0.616
15.6464      1.233     0.625
15.8740      1.233     0.633
16.1049      1.234     0.642
16.3392      1.234     0.651
16.5768      1.235     0.660
16.8179      1.235     0.669
17.0626      1.236     0.678
17.3107      1.236     0.687
17.5625      1.237     0.697
17.8180      1.237     0.706
18.0771      1.238     0.716
18.3401      1.238     0.725
18.6068      1.239     0.735
18.8775      1.240     0.745
19.1521      1.240     0.756
19.4306      1.241     0.766
19.7133      1.241     0.776
20.0000      1.242     0.787
20.2909      1.243     0.798
20.5860      1.243     0.808
20.8855      1.244     0.819
21.1893      1.245     0.831
21.4975      1.246     0.842
21.8102      1.247     0.853
22.1274      1.247     0.865
22.4492      1.248     0.877
22.7758      1.249     0.889
23.1071      1.250     0.901
23.4432      1.251     0.913
23.7841      1.252     0.925
24.1301      1.253     0.938
24.4811      1.254     0.950
24.8372      1.255     0.963
25.1984      1.256     0.976
25.5649      1.257     0.989
25.9368      1.258     1.003
26.3141      1.259     1.016
26.6968      1.260     1.030
27.0851      1.262     1.044
27.4791      1.263     1.058
27.8788      1.264     1.072
28.2843      1.265     1.086
28.6957      1.267     1.100
29.1131      1.268     1.115
29.5365      1.270     1.130
29.9661      1.271     1.145
30.4020      1.273     1.160
30.8442      1.274     1.175
31.2929      1.276     1.191
31.7480      1.278     1.207
32.2098      1.279     1.223
32.6783      1.281     1.239
33.1536      1.283     1.255
33.6359      1.285     1.271
34.1251      1.287     1.288
34.6215      1.289     1.305
35.1250      1.291     1.321
35.6359      1.293     1.339
36.1543      1.295     1.356
36.6802      1.297     1.373
37.2137      1.299     1.391
37.7550      1.302     1.409
38.3041      1.304     1.427
38.8613      1.306     1.445
39.4265      1.309     1.463
40.0000      1.312     1.482
40.5818      1.314     1.500
41.1721      1.317     1.519
41.7710      1.320     1.538
42.3785      1.323     1.557
42.9949      1.326     1.576
43.6203      1.329     1.596
44.2548      1.332     1.615
44.8985      1.335     1.635
45.5515      1.338     1.655
46.2141      1.342     1.675
46.8863      1.345     1.695
47.5683      1.349     1.715
48.2602      1.353     1.735
48.9621      1.357     1.756
49.6743      1.361     1.777
50.3968      1.365     1.797
51.1299      1.369     1.818
51.8736      1.373     1.839
52.6281      1.377     1.860
53.3936      1.382     1.881
54.1702      1.386     1.902
54.9581      1.391     1.923
55.7575      1.396     1.945
56.5685      1.401     1.966
57.3914      1.406     1.987
58.2261      1.412     2.009
59.0730      1.417     2.030
59.9323      1.423     2.051
60.8040      1.428     2.072
61.6884      1.434     2.094
62.5857      1.440     2.115
63.4960      1.446     2.136
64.4196      1.453     2.157
65.3566      1.459     2.178
66.3073      1.466     2.199
67.2717      1.473     2.220
68.2502      1.480     2.241
69.2429      1.487     2.261
70.2501      1.495     2.282
71.2719      1.502     2.302
72.3086      1.510     2.322
73.3603      1.518     2.341
74.4274      1.526     2.361
75.5099      1.535     2.380
76.6083      1.543     2.398
77.7226      1.552     2.417
78.8531      1.561     2.435
80.0000      1.571     2.452
81.1636      1.580     2.470
82.3442      1.590     2.486
83.5419      1.600     2.502
84.7570      1.610     2.518
85.9899      1.621     2.533
87.2406      1.632     2.548
88.5096      1.643     2.561
89.7970      1.654     2.574
91.1031      1.666     2.587
92.4282      1.678     2.598
93.7726      1.690     2.609
95.1366      1.702     2.619
96.5204      1.715     2.628
97.9243      1.728     2.635
99.3486      1.741     2.642
100.794      1.755     2.648
102.260      1.769     2.653
103.747      1.783     2.656
105.256      1.798     2.659
106.787      1.813     2.659
108.340      1.828     2.659
109.916      1.844     2.657
111.515      1.860     2.653
113.137      1.876     2.648
114.783      1.893     2.642
116.452      1.910     2.633
118.146      1.927     2.623
119.865      1.945     2.611
121.608      1.963     2.596
123.377      1.981     2.580
125.171      2.000     2.562
126.992      2.019     2.541
128.839      2.039     2.519
130.713      2.059     2.493
132.615      2.079     2.465
134.543      2.100     2.435
136.500      2.121     2.402
138.486      2.142     2.366
140.500      2.164     2.327
142.544      2.186     2.286
144.617      2.209     2.241
146.721      2.232     2.192
148.855      2.255     2.141
151.020      2.279     2.086
153.217      2.303     2.028
155.445      2.328     1.966
157.706      2.353     1.900
160.000      2.378     1.830
162.327      2.404     1.756
164.688      2.430     1.678
167.084      2.457     1.596
169.514      2.484     1.510
171.980      2.511     1.418
174.481      2.539     1.322
177.019      2.567     1.222
179.594      2.595     1.116
182.206      2.624     1.005
184.856      2.653     0.890
187.545      2.682     0.768
190.273      2.712     0.642
193.041      2.742     0.509
195.849      2.772     0.371
198.697      2.803     0.227
201.587      2.834     0.077
204.520      2.865    -0.079
207.494      2.896    -0.241
210.512      2.928    -0.410
213.574      2.960    -0.586
216.681      2.992    -0.768
219.833      3.024    -0.957
223.030      3.056    -1.152
226.274      3.089    -1.355
229.565      3.122    -1.566
232.905      3.155    -1.783
236.292      3.188    -2.009
239.729      3.221    -2.241
243.216      3.254    -2.481
246.754      3.287    -2.730
250.343      3.321    -2.986
253.984      3.354    -3.251
257.678      3.387    -3.523
261.426      3.421    -3.804
265.229      3.454    -4.093
269.087      3.487    -4.390
273.001      3.520    -4.697
276.972      3.553    -5.012
281.000      3.585    -5.336
285.088      3.618    -5.668
289.234      3.650    -6.009
293.441      3.682    -6.360
297.709      3.714    -6.719
302.040      3.745    -7.088
306.433      3.776    -7.465
310.890      3.807    -7.852
315.412      3.837    -8.248
320.000      3.867    -8.653
324.655      3.896    -9.068
329.377      3.925    -9.491
334.168      3.953    -9.924
339.028      3.981   -10.366
343.959      4.008   -10.817
348.962      4.035   -11.278
354.038      4.061   -11.748
359.188      4.086   -12.227
364.412      4.110   -12.714
369.713      4.134   -13.211
375.090      4.157   -13.717
380.546      4.179   -14.232
386.081      4.201   -14.755
391.697      4.221   -15.288
397.394      4.241   -15.828
403.175      4.260   -16.377
409.039      4.278   -16.935
414.989      4.294   -17.501
421.025      4.310   -18.075
427.149      4.325   -18.657
433.362      4.339   -19.247
439.665      4.352   -19.844
446.060      4.364   -20.449
452.548      4.375   -21.061
459.131      4.385   -21.681
465.809      4.394   -22.308
472.584      4.402   -22.941
479.458      4.409   -23.582
486.432      4.415   -24.229
493.507      4.420   -24.883
500.686      4.423   -25.543
507.968      4.426   -26.210
515.357      4.428   -26.883
522.853      4.429   -27.562
530.458      4.429   -28.247
538.174      4.428   -28.939
546.002      4.426   -29.636
553.943      4.424   -30.340
562.001      4.420   -31.050
570.175      4.416   -31.766
578.469      4.411   -32.489
586.883      4.405   -33.218
595.419      4.398   -33.954
604.080      4.391   -34.698
612.866      4.383   -35.448
621.780      4.375   -36.207
630.824      4.366   -36.973
640.000      4.356   -37.749
649.309      4.345   -38.532
658.753      4.334   -39.326
668.335      4.323   -40.129
678.056      4.310   -40.944
687.919      4.297   -41.769
697.925      4.284   -42.605
708.077      4.269   -43.454
718.376      4.254   -44.316
728.825      4.238   -45.192
739.426      4.221   -46.082
750.181      4.203   -46.986
761.093      4.183   -47.905
772.163      4.163   -48.839
783.394      4.140   -49.790
794.789      4.117   -50.757
806.349      4.091   -51.740
818.078      4.063   -52.739
829.977      4.034   -53.754
842.050      4.002   -54.786
854.298      3.968   -55.834
866.724      3.931   -56.897
879.330      3.891   -57.975
892.120      3.848   -59.067
905.097      3.802   -60.173
918.262      3.752   -61.292
931.618      3.700   -62.421
945.169      3.643   -63.559
958.917      3.583   -64.705
972.864      3.519   -65.860
987.015      3.451   -67.019
1001.37      3.380   -68.181
1015.94      3.304   -69.344
1030.71      3.225   -70.507
1045.71      3.143   -71.669
1060.92      3.056   -72.827
1076.35      2.967   -73.980
1092.00      2.874   -75.126
1107.89      2.779   -76.263
1124.00      2.681   -77.393
1140.35      2.581   -78.513
1156.94      2.478   -79.623
1173.77      2.375   -80.723
1190.84      2.270   -81.814
1208.16      2.164   -82.896
1225.73      2.058   -83.971
1243.56      1.951   -85.040
1261.65      1.845   -86.103
1280.00      1.738   -87.165
1298.62      1.632   -88.228
1317.51      1.526   -89.292
1336.67      1.421   -90.361
1356.11      1.316   -91.436
1375.84      1.212   -92.522
1395.85      1.108   -93.618
1416.15      1.004   -94.726
1436.75      0.900   -95.849
1457.65      0.796   -96.986
1478.85      0.692   -98.141
1500.36      0.588   -99.314
1522.19      0.483  -100.504
1544.33      0.377  -101.714
1566.79      0.272  -102.944
1589.58      0.165  -104.198
1612.70      0.058  -105.476
1636.16     -0.049  -106.781
1659.95     -0.157  -108.115
1684.10     -0.266  -109.484
1708.60     -0.376  -110.889
1733.45     -0.487  -112.334
1758.66     -0.600  -113.824
1784.24     -0.716  -115.362
1810.19     -0.835  -116.951
1836.52     -0.958  -118.592
1863.24     -1.087  -120.288
1890.34     -1.222  -122.037
1917.83     -1.363  -123.842
1945.73     -1.513  -125.698
1974.03     -1.672  -127.604
2002.74     -1.841  -129.556
2031.87     -2.019  -131.552
2061.43     -2.209  -133.590
2091.41     -2.409  -135.665
2121.83     -2.622  -137.774
2152.69     -2.846  -139.919
2184.01     -3.082  -142.099
2215.77     -3.331  -144.312
2248.00     -3.593  -146.559
2280.70     -3.869  -148.843
2313.87     -4.160  -151.165
2347.53     -4.468  -153.524
2381.68     -4.792  -155.920
2416.32     -5.136  -158.352
2451.46     -5.500  -160.820
2487.12     -5.887  -163.319
2523.30     -6.297  -165.843
2560.00     -6.733  -168.390
2597.24     -7.196  -170.957
2635.01     -7.689  -173.538
2673.34     -8.213  -176.127
2712.23     -8.771  -178.720
2751.68     -9.365   178.684
2791.70    -10.000   176.093
2832.31    -10.696   173.295
2873.50    -11.461   170.371
2915.30    -12.306   167.343
2957.70    -13.249   164.217
3000.72    -14.313   161.007
3044.37    -15.529   157.737
3088.65    -16.940   154.448
3133.58    -18.607   151.210
3179.16    -20.626   148.127
3225.40    -23.168   145.370
3272.31    -26.593   143.322
3319.91    -31.908   143.430
3368.20    -44.609   167.565
3417.19    -36.625   -74.045
3466.89    -29.964   -53.695
3517.32    -26.133   -55.605
3568.48    -23.572   -57.515
3620.39    -21.635   -59.786
3673.05    -20.082   -62.431
3726.47    -18.802   -65.430
3780.67    -17.739   -68.722
3835.67    -16.856   -72.217
3891.46    -16.125   -75.806
3948.06    -15.519   -79.389
4005.49    -15.012   -82.903
4063.75    -14.578   -86.336
4122.86    -14.196   -89.721
4182.82    -13.851   -93.134
4243.66    -13.540   -96.663
4305.39    -13.264  -100.375
4368.01    -13.031  -104.302
4431.55    -12.849  -108.444
4496.01    -12.722  -112.779
4561.40    -12.656  -117.271
4627.75    -12.652  -121.887
4695.06    -12.712  -126.599
4763.35    -12.838  -131.371
4832.64    -13.030  -136.160
4902.93    -13.286  -140.927
4974.24    -13.601  -145.650
5046.60    -13.972  -150.328
5120.00    -14.394  -154.994
5194.47    -14.825  -159.902
5270.03    -15.340  -164.846
5346.68    -15.943  -169.808
5424.45    -16.643  -174.798
5503.35    -17.458  -179.828
5583.40    -18.413   175.109
5664.61    -19.546   170.046
5747.01    -20.911   165.060
5830.60    -22.597   160.350
5915.41    -24.741   156.418
6001.45    -27.561   154.548
6088.74    -31.373   158.274
6177.30    -36.162  -179.380
6267.15    -39.602  -146.944
6358.31    -35.799   -97.110
6450.80    -31.794   -82.910
6544.62    -28.567   -78.363
6639.82    -25.968   -79.364
6736.40    -23.967   -83.618
6834.38    -22.487   -89.393
6933.79    -21.399   -95.630
7034.64    -20.576  -101.974
7136.96    -19.947  -108.502
7240.77    -19.500  -115.272
7346.09    -19.233  -122.139
7452.94    -19.114  -128.971
7561.35    -19.117  -135.944
7671.33    -19.243  -142.989
7782.91    -19.476  -150.229
7896.12    -19.846  -157.942
8010.97    -20.439  -166.084
8127.49    -21.309  -174.127
8245.71    -22.433   178.409
8365.65    -23.789   171.361
8487.33    -25.502   164.418
8610.78    -27.817   158.434
8736.03    -30.917   155.614
8863.09    -35.089   158.636
8992.01    -42.619  -171.864
9122.80    -45.631  -121.111
9255.50    -35.267   -83.383
9390.12    -30.831   -86.301
9526.70    -28.211   -92.865
9665.27    -26.413  -100.389
9805.86    -25.126  -108.490
9948.49    -24.238  -117.032
10093.2    -23.703  -125.742
10240.0    -23.412  -134.235
10388.9    -23.271  -143.049
10540.1    -23.372  -152.849
10693.4    -23.862  -163.087
10848.9    -24.736  -172.717
11006.7    -25.910   178.508
11166.8    -27.403   170.201
11329.2    -29.390   162.164
11494.0    -32.243   154.966
11661.2    -36.868   150.857
11830.8    -49.074  -170.535
12002.9    -41.958  -104.012
12177.5    -34.952   -94.105
12354.6    -31.279  -101.112
12534.3    -29.071  -111.524
12716.6    -27.714  -122.404
12901.6    -26.869  -133.591
13089.2    -26.452  -145.117
13279.6    -26.392  -156.970
13472.8    -26.713  -169.509
13668.8    -27.520   177.210
13867.6    -29.014   163.613
14069.3    -31.299   151.195
14273.9    -34.560   138.259
14481.5    -40.416   126.887
14692.2    -59.058   142.379
14905.9    -40.878   -72.306
15122.7    -34.886   -90.104
15342.7    -31.604  -107.543
15565.8    -29.991  -124.928
15792.2    -29.262  -140.704
16021.9    -29.130  -155.865
16255.0    -29.441  -170.822
16491.4    -30.285   173.026
16731.3    -32.023   156.433
16974.7    -34.814   138.444
17221.6    -40.729   110.202
17472.1    -60.475  -127.214
17726.2    -41.536   -73.579
17984.0    -36.095   -94.354
18245.6    -33.069  -111.161
18511.0    -31.496  -129.899
18780.2    -30.991  -147.550
19053.4    -31.295  -165.130
19330.5    -32.651   178.674
19611.7    -34.650   165.312
19897.0    -38.612   150.761
20186.4    -50.294   172.177
20480.0    -46.036  -120.547
20777.9    -37.501  -117.505
21080.1    -34.596  -131.667
21386.7    -33.117  -148.833
21697.8    -32.808  -167.688
22013.4    -33.841   172.329
22333.6    -35.940   157.685
22658.4    -40.084   136.408
22988.0    -56.589  -159.160
23322.4    -45.002  -131.395
23661.6    -38.321  -129.834
24005.8    -35.452  -145.628
24355.0    -34.113  -166.397
24709.2    -34.934   173.055
25068.6    -36.623   154.299
25433.2    -40.751   134.770
25803.2    -55.848   174.122
26178.5    -44.985  -133.493
26559.3    -38.518  -142.467
26945.6    -36.515  -162.797
27337.5    -36.047   177.452
27735.2    -37.259   154.853
28138.6    -40.986   135.893
28547.9    -54.145   163.268
28963.1    -45.906  -153.503
29384.4    -39.568  -158.418
29811.8    -37.482  -177.228
30245.4    -37.313   159.286
30685.3    -39.527   135.021
31131.7    -46.938   126.710
31584.5    -54.666   164.783
32043.9    -42.792  -151.487
32510.0    -38.823  -178.592
32982.8    -38.348   153.615
33462.6    -40.141   129.336
33949.3    -46.803   122.062
34443.1    -53.757   158.264
34944.1    -42.487   179.023
35452.4    -39.431   150.801
35968.0    -39.776   116.754
36491.2    -43.743    80.205
37022.0    -62.433   126.580
37560.5    -46.095   171.807
38106.8    -41.071   141.594
38661.1    -40.563   100.138
39223.4    -43.907    51.210
39793.9    -60.074    53.989
