Freq[Hz]     dBSPL  Phase[Deg]
5.00000      1.225     0.202
5.07273      1.225     0.205
5.14651      1.225     0.208
5.22137      1.225     0.211
5.29732      1.225     0.214
5.37437      1.226     0.217
5.45254      1.226     0.220
5.53185      1.226     0.223
5.61231      1.226     0.227
5.69394      1.226     0.230
5.77676      1.226     0.233
5.86079      1.226     0.237
5.94604      1.226     0.240
6.03252      1.226     0.244
6.12027      1.226     0.247
6.20929      1.226     0.251
6.29961      1.226     0.255
6.39124      1.226     0.258
6.48420      1.227     0.262
6.57851      1.227     0.266
6.67420      1.227     0.270
6.77128      1.227     0.274
6.86977      1.227     0.278
6.96969      1.227     0.282
7.07107      1.227     0.286
7.17392      1.227     0.290
7.27827      1.227     0.294
7.38413      1.228     0.299
7.49154      1.228     0.303
7.60050      1.228     0.307
7.71105      1.228     0.312
7.82321      1.228     0.317
7.93701      1.228     0.321
8.05245      1.228     0.326
8.16958      1.229     0.331
8.28841      1.229     0.335
8.40896      1.229     0.340
8.53128      1.229     0.345
8.65537      1.229     0.350
8.78126      1.229     0.355
8.90899      1.230     0.361
9.03857      1.230     0.366
9.17004      1.230     0.371
9.30342      1.230     0.376
9.43874      1.230     0.382
9.57603      1.230     0.387
9.71532      1.231     0.393
9.85663      1.231     0.399
10.0000      1.231     0.405
10.1455      1.231     0.410
10.2930      1.232     0.416
10.4427      1.232     0.422
10.5946      1.232     0.429
10.7487      1.232     0.435
10.9051      1.233     0.441
11.0637      1.233     0.447
11.2246      1.233     0.454
11.3879      1.233     0.460
11.5535      1.234     0.467
11.7216      1.234     0.474
11.8921      1.234     0.481
12.0650      1.235     0.488
12.2405      1.235     0.495
12.4186      1.235     0.502
12.5992      1.236     0.509
12.7825      1.236     0.516
12.9684      1.237     0.524
13.1570      1.237     0.531
13.3484      1.237     0.539
13.5426      1.238     0.547
13.7395      1.238     0.554
13.9394      1.239     0.562
14.1421      1.239     0.570
14.3478      1.239     0.579
14.5565      1.240     0.587
14.7683      1.240     0.595
14.9831      1.241     0.604
15.2010      1.241     0.612
15.4221      1.242     0.620
15.6464      1.243     0.629
15.8740      1.243     0.637
16.1049      1.244     0.646
16.3392      1.244     0.655
16.5768      1.245     0.663
16.8179      1.246     0.672
17.0626      1.246     0.681
17.3107      1.247     0.691
17.5625      1.248     0.700
17.8180      1.248     0.709
18.0771      1.249     0.719
18.3401      1.250     0.729
18.6068      1.250     0.739
18.8775      1.251     0.748
19.1521      1.252     0.759
19.4306      1.253     0.769
19.7133      1.254     0.779
20.0000      1.255     0.789
20.2909      1.256     0.800
20.5860      1.256     0.811
20.8855      1.257     0.822
21.1893      1.258     0.833
21.4975      1.259     0.844
21.8102      1.261     0.855
22.1274      1.262     0.866
22.4492      1.263     0.878
22.7758      1.264     0.890
23.1071      1.265     0.901
23.4432      1.266     0.913
23.7841      1.267     0.925
24.1301      1.269     0.938
24.4811      1.270     0.950
24.8372      1.271     0.962
25.1984      1.273     0.975
25.5649      1.274     0.988
25.9368      1.276     1.001
26.3141      1.277     1.014
26.6968      1.279     1.027
27.0851      1.280     1.041
27.4791      1.282     1.054
27.8788      1.284     1.068
28.2843      1.286     1.081
28.6957      1.287     1.095
29.1131      1.289     1.109
29.5365      1.291     1.124
29.9661      1.293     1.138
30.4020      1.295     1.152
30.8442      1.297     1.167
31.2929      1.299     1.182
31.7480      1.301     1.197
32.2098      1.304     1.212
32.6783      1.306     1.227
33.1536      1.308     1.242
33.6359      1.311     1.258
34.1251      1.313     1.273
34.6215      1.316     1.289
35.1250      1.319     1.305
35.6359      1.321     1.321
36.1543      1.324     1.337
36.6802      1.327     1.353
37.2137      1.330     1.369
37.7550      1.333     1.385
38.3041      1.336     1.402
38.8613      1.339     1.418
39.4265      1.343     1.435
40.0000      1.346     1.452
40.5818      1.350     1.469
41.1721      1.353     1.485
41.7710      1.357     1.502
42.3785      1.361     1.519
42.9949      1.365     1.536
43.6203      1.369     1.554
44.2548      1.373     1.571
44.8985      1.377     1.588
45.5515      1.381     1.605
46.2141      1.386     1.623
46.8863      1.390     1.640
47.5683      1.395     1.657
48.2602      1.400     1.674
48.9621      1.405     1.692
49.6743      1.410     1.709
50.3968      1.415     1.726
51.1299      1.421     1.743
51.8736      1.426     1.760
52.6281      1.432     1.777
53.3936      1.438     1.794
54.1702      1.444     1.811
54.9581      1.450     1.827
55.7575      1.456     1.844
56.5685      1.463     1.860
57.3914      1.469     1.876
58.2261      1.476     1.892
59.0730      1.483     1.908
59.9323      1.490     1.923
60.8040      1.498     1.939
61.6884      1.505     1.954
62.5857      1.513     1.968
63.4960      1.521     1.983
64.4196      1.529     1.996
65.3566      1.538     2.010
66.3073      1.546     2.023
67.2717      1.555     2.036
68.2502      1.564     2.048
69.2429      1.573     2.060
70.2501      1.583     2.071
71.2719      1.592     2.081
72.3086      1.602     2.091
73.3603      1.613     2.100
74.4274      1.623     2.109
75.5099      1.634     2.117
76.6083      1.645     2.124
77.7226      1.656     2.131
78.8531      1.668     2.136
80.0000      1.679     2.140
81.1636      1.691     2.144
82.3442      1.704     2.147
83.5419      1.716     2.148
84.7570      1.729     2.149
85.9899      1.742     2.148
87.2406      1.756     2.146
88.5096      1.770     2.143
89.7970      1.784     2.138
91.1031      1.798     2.132
92.4282      1.813     2.125
93.7726      1.828     2.116
95.1366      1.844     2.105
96.5204      1.859     2.093
97.9243      1.876     2.079
99.3486      1.892     2.063
100.794      1.909     2.045
102.260      1.926     2.026
103.747      1.943     2.004
105.256      1.961     1.980
106.787      1.979     1.954
108.340      1.998     1.926
109.916      2.017     1.895
111.515      2.036     1.861
113.137      2.056     1.825
114.783      2.076     1.787
116.452      2.096     1.746
118.146      2.117     1.701
119.865      2.138     1.654
121.608      2.160     1.603
123.377      2.181     1.550
125.171      2.204     1.493
126.992      2.226     1.432
128.839      2.249     1.368
130.713      2.273     1.301
132.615      2.297     1.229
134.543      2.321     1.154
136.500      2.345     1.074
138.486      2.370     0.991
140.500      2.395     0.903
142.544      2.421     0.810
144.617      2.447     0.713
146.721      2.473     0.612
148.855      2.500     0.505
151.020      2.527     0.394
153.217      2.554     0.278
155.445      2.582     0.156
157.706      2.609     0.029
160.000      2.638    -0.104
162.327      2.666    -0.242
164.688      2.695    -0.386
167.084      2.724    -0.536
169.514      2.753    -0.692
171.980      2.783    -0.855
174.481      2.813    -1.024
177.019      2.843    -1.199
179.594      2.873    -1.381
182.206      2.904    -1.570
184.856      2.934    -1.766
187.545      2.965    -1.968
190.273      2.996    -2.179
193.041      3.027    -2.396
195.849      3.058    -2.622
198.697      3.089    -2.854
201.587      3.121    -3.095
204.520      3.152    -3.343
207.494      3.183    -3.600
210.512      3.215    -3.865
213.574      3.246    -4.138
216.681      3.277    -4.419
219.833      3.309    -4.710
223.030      3.340    -5.008
226.274      3.370    -5.316
229.565      3.401    -5.633
232.905      3.432    -5.958
236.292      3.462    -6.293
239.729      3.492    -6.637
243.216      3.522    -6.990
246.754      3.551    -7.353
250.343      3.580    -7.725
253.984      3.609    -8.106
257.678      3.637    -8.498
261.426      3.664    -8.898
265.229      3.692    -9.309
269.087      3.718    -9.729
273.001      3.744   -10.159
276.972      3.769   -10.599
281.000      3.794   -11.049
285.088      3.818   -11.508
289.234      3.841   -11.977
293.441      3.864   -12.456
297.709      3.885   -12.945
302.040      3.906   -13.443
306.433      3.925   -13.951
310.890      3.944   -14.469
315.412      3.961   -14.996
320.000      3.978   -15.532
324.655      3.993   -16.078
329.377      4.008   -16.633
334.168      4.021   -17.197
339.028      4.032   -17.770
343.959      4.043   -18.351
348.962      4.052   -18.941
354.038      4.060   -19.539
359.188      4.066   -20.146
364.412      4.071   -20.760
369.713      4.074   -21.382
375.090      4.076   -22.011
380.546      4.076   -22.647
386.081      4.074   -23.290
391.697      4.071   -23.939
397.394      4.067   -24.594
403.175      4.060   -25.255
409.039      4.052   -25.921
414.989      4.042   -26.592
421.025      4.030   -27.268
427.149      4.016   -27.948
433.362      4.001   -28.631
439.665      3.983   -29.317
446.060      3.964   -30.005
452.548      3.943   -30.697
459.131      3.920   -31.390
465.809      3.896   -32.083
472.584      3.869   -32.778
479.458      3.841   -33.472
486.432      3.811   -34.166
493.507      3.779   -34.859
500.686      3.746   -35.551
507.968      3.711   -36.240
515.357      3.675   -36.927
522.853      3.637   -37.611
530.458      3.597   -38.292
538.174      3.556   -38.969
546.002      3.514   -39.642
553.943      3.471   -40.310
562.001      3.426   -40.973
570.175      3.381   -41.631
578.469      3.335   -42.283
586.883      3.287   -42.930
595.419      3.240   -43.571
604.080      3.191   -44.205
612.866      3.143   -44.834
621.780      3.094   -45.457
630.824      3.044   -46.074
640.000      2.995   -46.685
649.309      2.946   -47.291
658.753      2.897   -47.891
668.335      2.849   -48.486
678.056      2.800   -49.077
687.919      2.753   -49.664
697.925      2.706   -50.248
708.077      2.660   -50.827
718.376      2.615   -51.405
728.825      2.572   -51.982
739.426      2.529   -52.557
750.181      2.488   -53.132
761.093      2.448   -53.707
772.163      2.410   -54.284
783.394      2.373   -54.864
794.789      2.338   -55.448
806.349      2.305   -56.036
818.078      2.274   -56.630
829.977      2.246   -57.231
842.050      2.219   -57.843
854.298      2.195   -58.465
866.724      2.173   -59.100
879.330      2.154   -59.749
892.120      2.137   -60.415
905.097      2.122   -61.101
918.262      2.110   -61.810
931.618      2.101   -62.543
945.169      2.093   -63.304
958.917      2.088   -64.096
972.864      2.085   -64.922
987.015      2.083   -65.785
1001.37      2.082   -66.687
1015.94      2.083   -67.631
1030.71      2.083   -68.620
1045.71      2.083   -69.657
1060.92      2.082   -70.743
1076.35      2.080   -71.878
1092.00      2.075   -73.063
1107.89      2.067   -74.299
1124.00      2.055   -75.587
1140.35      2.038   -76.923
1156.94      2.016   -78.306
1173.77      1.988   -79.733
1190.84      1.952   -81.202
1208.16      1.910   -82.708
1225.73      1.859   -84.247
1243.56      1.800   -85.813
1261.65      1.731   -87.401
1280.00      1.654   -89.005
1298.62      1.568   -90.620
1317.51      1.472   -92.238
1336.67      1.368   -93.853
1356.11      1.255   -95.459
1375.84      1.135   -97.054
1395.85      1.007   -98.630
1416.15      0.872  -100.185
1436.75      0.732  -101.714
1457.65      0.587  -103.218
1478.85      0.438  -104.697
1500.36      0.287  -106.151
1522.19      0.133  -107.582
1544.33     -0.022  -108.993
1566.79     -0.177  -110.390
1589.58     -0.333  -111.777
1612.70     -0.488  -113.160
1636.16     -0.643  -114.543
1659.95     -0.798  -115.931
1684.10     -0.953  -117.334
1708.60     -1.108  -118.752
1733.45     -1.263  -120.192
1758.66     -1.419  -121.657
1784.24     -1.576  -123.152
1810.19     -1.734  -124.683
1836.52     -1.895  -126.253
1863.24     -2.059  -127.865
1890.34     -2.227  -129.525
1917.83     -2.399  -131.238
1945.73     -2.577  -133.007
1974.03     -2.763  -134.835
2002.74     -2.957  -136.722
2031.87     -3.161  -138.673
2061.43     -3.377  -140.683
2091.41     -3.607  -142.751
2121.83     -3.851  -144.873
2152.69     -4.112  -147.044
2184.01     -4.391  -149.260
2215.77     -4.689  -151.514
2248.00     -5.007  -153.799
2280.70     -5.347  -156.111
2313.87     -5.709  -158.446
2347.53     -6.095  -160.796
2381.68     -6.506  -163.156
2416.32     -6.944  -165.520
2451.46     -7.409  -167.884
2487.12     -7.904  -170.241
2523.30     -8.430  -172.585
2560.00     -8.989  -174.917
2597.24     -9.582  -177.243
2635.01    -10.214  -179.567
2673.34    -10.887   178.097
2712.23    -11.611   175.733
2751.68    -12.395   173.323
2791.70    -13.254   170.857
2832.31    -14.231   167.981
2873.50    -15.313   165.019
2915.30    -16.519   161.996
2957.70    -17.880   158.861
3000.72    -19.448   155.523
3044.37    -21.308   151.824
3088.65    -23.610   147.440
3133.58    -26.651   141.521
3179.16    -31.121   130.627
3225.40    -40.818    96.100
3272.31    -37.722    -5.516
3319.91    -30.204   -25.673
3368.20    -26.170   -34.099
3417.19    -23.423   -40.174
3466.89    -21.362   -45.606
3517.32    -19.748   -50.898
3568.48    -18.466   -56.195
3620.39    -17.452   -61.478
3673.05    -16.663   -66.639
3726.47    -16.059   -71.538
3780.67    -15.598   -76.051
3835.67    -15.234   -80.125
3891.46    -14.923   -83.813
3948.06    -14.632   -87.274
4005.49    -14.348   -90.723
4063.75    -14.080   -94.337
4122.86    -13.845   -98.183
4182.82    -13.660  -102.226
4243.66    -13.529  -106.386
4305.39    -13.445  -110.601
4368.01    -13.398  -114.885
4431.55    -13.383  -119.315
4496.01    -13.412  -123.978
4561.40    -13.502  -128.889
4627.75    -13.673  -133.971
4695.06    -13.932  -139.088
4763.35    -14.273  -144.108
4832.64    -14.679  -148.978
4902.93    -15.136  -153.746
4974.24    -15.641  -158.523
5046.60    -16.206  -163.418
5120.00    -16.852  -168.499
5194.47    -17.707  -173.746
5270.03    -18.681  -179.058
5346.68    -19.784   175.420
5424.45    -21.055   169.383
5503.35    -22.582   162.398
5583.40    -24.537   153.959
5664.61    -27.203   143.281
5747.01    -31.097   127.793
5830.60    -37.057    92.748
5915.41    -42.985    -2.025
6001.45    -33.231   -17.088
6088.74    -29.113   -37.067
6177.30    -26.571   -49.042
6267.15    -24.906   -58.048
6358.31    -23.718   -64.768
6450.80    -22.677   -70.000
6544.62    -21.635   -75.351
6639.82    -20.693   -82.007
6736.40    -20.012   -89.783
6834.38    -19.635   -97.707
6933.79    -19.472  -105.058
7034.64    -19.407  -111.898
7136.96    -19.406  -118.741
7240.77    -19.510  -125.828
7346.09    -19.750  -133.042
7452.94    -20.134  -140.209
7561.35    -20.708  -147.158
7671.33    -21.470  -154.073
7782.91    -22.451  -160.859
7896.12    -23.675  -167.369
8010.97    -25.183  -173.750
8127.49    -27.168   179.698
8245.71    -30.076   173.841
8365.65    -34.765   173.261
8487.33    -42.607  -149.092
8610.78    -42.845   -91.712
8736.03    -34.762   -71.079
8863.09    -31.261   -71.316
8992.01    -28.839   -73.976
9122.80    -26.857   -79.260
9255.50    -25.391   -87.286
9390.12    -24.493   -96.244
9526.70    -23.964  -104.827
9665.27    -23.623  -113.420
9805.86    -23.514  -122.238
9948.49    -23.612  -130.936
10093.2    -23.972  -140.176
10240.0    -24.723  -149.181
10388.9    -25.718  -156.962
10540.1    -26.865  -165.507
10693.4    -28.809  -175.845
10848.9    -32.160   177.548
11006.7    -36.655  -178.323
11166.8    -43.719  -143.290
11329.2    -43.013  -104.760
11494.0    -35.719   -74.892
11661.2    -31.683   -79.179
11830.8    -29.514   -88.268
12002.9    -28.119   -97.198
12177.5    -27.214  -107.791
12354.6    -26.621  -119.093
12534.3    -26.567  -131.448
12716.6    -26.976  -143.343
12901.6    -27.889  -155.256
13089.2    -29.259  -165.373
13279.6    -30.905  -176.914
13472.8    -34.016   169.085
13668.8    -39.672   157.599
13867.6    -56.446  -144.079
14069.3    -41.405   -56.923
14273.9    -35.357   -65.746
14481.5    -32.354   -79.678
14692.2    -30.667   -93.192
14905.9    -29.607  -106.293
15122.7    -28.987  -120.767
15342.7    -29.291  -136.919
15565.8    -30.250  -149.841
15792.2    -31.611  -165.186
16021.9    -34.693   179.952
16255.0    -39.949   169.533
16491.4    -56.283  -133.471
16731.3    -43.302   -72.963
16974.7    -36.785   -71.786
17221.6    -33.323   -85.159
17472.1    -31.742  -102.600
17726.2    -31.334  -117.591
17984.0    -31.411  -132.670
18245.6    -32.357  -149.153
18511.0    -34.770  -163.164
18780.2    -38.589  -172.701
19053.4    -48.316  -152.899
19330.5    -49.022   -98.344
19611.7    -39.122   -78.559
19897.0    -35.413   -89.826
20186.4    -33.646  -107.235
20480.0    -33.158  -124.170
20777.9    -33.778  -142.189
21080.1    -35.631  -158.425
21386.7    -39.586  -171.569
21697.8    -50.925  -143.944
22013.4    -46.766   -91.279
22333.6    -38.565   -83.637
22658.4    -35.797  -101.381
22988.0    -34.560  -118.202
23322.4    -34.898  -137.631
23661.6    -36.659  -155.527
24005.8    -40.191  -170.780
24355.0    -54.325  -148.504
24709.2    -46.476   -99.367
25068.6    -39.636   -86.610
25433.2    -36.660  -107.477
25803.2    -36.066  -128.232
26178.5    -37.032  -147.770
26559.3    -40.780  -164.351
26945.6    -48.154  -147.511
27337.5    -49.120  -109.199
27735.2    -40.551   -97.120
28138.6    -37.818  -116.582
28547.9    -37.243  -140.641
28963.1    -39.049  -166.309
29384.4    -44.284   172.414
29811.8    -63.251  -158.316
30245.4    -44.024   -62.082
30685.3    -39.614   -91.721
31131.7    -38.686  -121.170
31584.5    -40.085  -148.511
32043.9    -45.934  -159.906
32510.0    -60.354  -111.899
32982.8    -43.529   -76.052
33462.6    -39.928  -101.042
33949.3    -40.042  -129.043
34443.1    -42.924  -153.846
34944.1    -55.910  -128.269
35452.4    -47.973   -87.919
35968.0    -41.770   -97.524
36491.2    -40.547  -123.225
37022.0    -43.377  -149.426
37560.5    -54.987  -126.764
38106.8    -48.766   -86.212
38661.1    -42.553   -96.481
39223.4    -41.677  -119.095
39793.9    -45.728  -125.497
