Freq[Hz]     dBSPL  Phase[Deg]
5.00000      0.789    -0.053
5.07273      0.789    -0.054
5.14651      0.789    -0.054
5.22137      0.789    -0.055
5.29732      0.789    -0.056
5.37437      0.789    -0.057
5.45254      0.789    -0.058
5.53185      0.789    -0.058
5.61231      0.789    -0.059
5.69394      0.789    -0.060
5.77676      0.789    -0.061
5.86079      0.789    -0.062
5.94604      0.789    -0.063
6.03252      0.789    -0.063
6.12027      0.789    -0.064
6.20929      0.789    -0.065
6.29961      0.789    -0.066
6.39124      0.789    -0.067
6.48420      0.789    -0.068
6.57851      0.790    -0.069
6.67420      0.790    -0.070
6.77128      0.790    -0.071
6.86977      0.790    -0.072
6.96969      0.790    -0.073
7.07107      0.790    -0.074
7.17392      0.790    -0.075
7.27827      0.790    -0.076
7.38413      0.790    -0.077
7.49154      0.790    -0.078
7.60050      0.790    -0.079
7.71105      0.790    -0.081
7.82321      0.790    -0.082
7.93701      0.790    -0.083
8.05245      0.790    -0.084
8.16958      0.790    -0.085
8.28841      0.790    -0.086
8.40896      0.790    -0.088
8.53128      0.791    -0.089
8.65537      0.791    -0.090
8.78126      0.791    -0.091
8.90899      0.791    -0.093
9.03857      0.791    -0.094
9.17004      0.791    -0.095
9.30342      0.791    -0.097
9.43874      0.791    -0.098
9.57603      0.791    -0.100
9.71532      0.791    -0.101
9.85663      0.791    -0.102
10.0000      0.791    -0.104
10.1455      0.792    -0.105
10.2930      0.792    -0.107
10.4427      0.792    -0.108
10.5946      0.792    -0.110
10.7487      0.792    -0.112
10.9051      0.792    -0.113
11.0637      0.792    -0.115
11.2246      0.792    -0.117
11.3879      0.792    -0.118
11.5535      0.793    -0.120
11.7216      0.793    -0.122
11.8921      0.793    -0.123
12.0650      0.793    -0.125
12.2405      0.793    -0.127
12.4186      0.793    -0.129
12.5992      0.793    -0.131
12.7825      0.794    -0.133
12.9684      0.794    -0.135
13.1570      0.794    -0.137
13.3484      0.794    -0.139
13.5426      0.794    -0.141
13.7395      0.794    -0.143
13.9394      0.795    -0.145
14.1421      0.795    -0.147
14.3478      0.795    -0.149
14.5565      0.795    -0.151
14.7683      0.795    -0.153
14.9831      0.796    -0.156
15.2010      0.796    -0.158
15.4221      0.796    -0.161
15.6464      0.796    -0.164
15.8740      0.797    -0.167
16.1049      0.797    -0.170
16.3392      0.797    -0.172
16.5768      0.797    -0.175
16.8179      0.798    -0.178
17.0626      0.798    -0.181
17.3107      0.798    -0.185
17.5625      0.799    -0.188
17.8180      0.799    -0.191
18.0771      0.799    -0.194
18.3401      0.799    -0.198
18.6068      0.800    -0.201
18.8775      0.800    -0.204
19.1521      0.800    -0.208
19.4306      0.801    -0.211
19.7133      0.801    -0.215
20.0000      0.802    -0.219
20.2909      0.802    -0.222
20.5860      0.802    -0.226
20.8855      0.803    -0.230
21.1893      0.803    -0.234
21.4975      0.804    -0.238
21.8102      0.804    -0.242
22.1274      0.805    -0.246
22.4492      0.805    -0.250
22.7758      0.806    -0.255
23.1071      0.806    -0.259
23.4432      0.807    -0.263
23.7841      0.807    -0.268
24.1301      0.808    -0.272
24.4811      0.808    -0.277
24.8372      0.809    -0.282
25.1984      0.810    -0.286
25.5649      0.810    -0.291
25.9368      0.811    -0.296
26.3141      0.811    -0.301
26.6968      0.812    -0.306
27.0851      0.813    -0.312
27.4791      0.814    -0.317
27.8788      0.814    -0.322
28.2843      0.815    -0.328
28.6957      0.816    -0.334
29.1131      0.817    -0.339
29.5365      0.817    -0.345
29.9661      0.818    -0.351
30.4020      0.819    -0.357
30.8442      0.820    -0.363
31.2929      0.821    -0.370
31.7480      0.822    -0.376
32.2098      0.823    -0.383
32.6783      0.824    -0.389
33.1536      0.825    -0.396
33.6359      0.826    -0.403
34.1251      0.827    -0.410
34.6215      0.828    -0.417
35.1250      0.829    -0.425
35.6359      0.831    -0.432
36.1543      0.832    -0.440
36.6802      0.833    -0.447
37.2137      0.834    -0.455
37.7550      0.836    -0.463
38.3041      0.837    -0.472
38.8613      0.839    -0.480
39.4265      0.840    -0.489
40.0000      0.842    -0.498
40.5818      0.843    -0.506
41.1721      0.845    -0.516
41.7710      0.846    -0.525
42.3785      0.848    -0.535
42.9949      0.850    -0.544
43.6203      0.851    -0.554
44.2548      0.853    -0.565
44.8985      0.855    -0.575
45.5515      0.857    -0.586
46.2141      0.859    -0.596
46.8863      0.861    -0.608
47.5683      0.863    -0.619
48.2602      0.865    -0.631
48.9621      0.868    -0.643
49.6743      0.870    -0.655
50.3968      0.872    -0.667
51.1299      0.875    -0.680
51.8736      0.877    -0.693
52.6281      0.880    -0.706
53.3936      0.882    -0.720
54.1702      0.885    -0.734
54.9581      0.888    -0.749
55.7575      0.890    -0.763
56.5685      0.893    -0.778
57.3914      0.896    -0.794
58.2261      0.899    -0.810
59.0730      0.903    -0.826
59.9323      0.906    -0.843
60.8040      0.909    -0.860
61.6884      0.913    -0.877
62.5857      0.916    -0.895
63.4960      0.920    -0.914
64.4196      0.923    -0.933
65.3566      0.927    -0.952
66.3073      0.931    -0.972
67.2717      0.935    -0.992
68.2502      0.939    -1.013
69.2429      0.943    -1.035
70.2501      0.948    -1.057
71.2719      0.952    -1.080
72.3086      0.957    -1.103
73.3603      0.962    -1.127
74.4274      0.966    -1.152
75.5099      0.971    -1.178
76.6083      0.976    -1.204
77.7226      0.982    -1.230
78.8531      0.987    -1.258
80.0000      0.992    -1.287
81.1636      0.998    -1.316
82.3442      1.004    -1.346
83.5419      1.010    -1.377
84.7570      1.016    -1.409
85.9899      1.022    -1.441
87.2406      1.028    -1.475
88.5096      1.035    -1.510
89.7970      1.042    -1.546
91.1031      1.048    -1.583
92.4282      1.056    -1.621
93.7726      1.063    -1.660
95.1366      1.070    -1.700
96.5204      1.078    -1.741
97.9243      1.085    -1.784
99.3486      1.093    -1.828
100.794      1.101    -1.874
102.260      1.110    -1.920
103.747      1.118    -1.969
105.256      1.127    -2.018
106.787      1.136    -2.069
108.340      1.145    -2.122
109.916      1.154    -2.177
111.515      1.164    -2.233
113.137      1.174    -2.291
114.783      1.184    -2.351
116.452      1.194    -2.412
118.146      1.204    -2.476
119.865      1.215    -2.541
121.608      1.226    -2.609
123.377      1.237    -2.679
125.171      1.248    -2.751
126.992      1.260    -2.825
128.839      1.272    -2.901
130.713      1.284    -2.980
132.615      1.296    -3.062
134.543      1.309    -3.146
136.500      1.322    -3.233
138.486      1.335    -3.322
140.500      1.348    -3.414
142.544      1.362    -3.509
144.617      1.375    -3.608
146.721      1.390    -3.709
148.855      1.404    -3.813
151.020      1.419    -3.921
153.217      1.433    -4.032
155.445      1.448    -4.146
157.706      1.464    -4.265
160.000      1.479    -4.387
162.327      1.495    -4.512
164.688      1.511    -4.642
167.084      1.528    -4.776
169.514      1.544    -4.913
171.980      1.561    -5.055
174.481      1.578    -5.202
177.019      1.596    -5.352
179.594      1.613    -5.508
182.206      1.631    -5.668
184.856      1.649    -5.833
187.545      1.667    -6.003
190.273      1.686    -6.178
193.041      1.704    -6.358
195.849      1.723    -6.544
198.697      1.742    -6.735
201.587      1.761    -6.932
204.520      1.780    -7.134
207.494      1.800    -7.342
210.512      1.819    -7.557
213.574      1.839    -7.778
216.681      1.859    -8.004
219.833      1.879    -8.238
223.030      1.899    -8.477
226.274      1.919    -8.724
229.565      1.939    -8.978
232.905      1.960    -9.238
236.292      1.980    -9.506
239.729      2.000    -9.780
243.216      2.020   -10.062
246.754      2.041   -10.352
250.343      2.061   -10.649
253.984      2.081   -10.955
257.678      2.101   -11.268
261.426      2.121   -11.588
265.229      2.140   -11.917
269.087      2.160   -12.255
273.001      2.179   -12.601
276.972      2.198   -12.955
281.000      2.217   -13.318
285.088      2.236   -13.689
289.234      2.254   -14.069
293.441      2.272   -14.458
297.709      2.289   -14.857
302.040      2.306   -15.264
306.433      2.323   -15.680
310.890      2.339   -16.105
315.412      2.354   -16.539
320.000      2.369   -16.983
324.655      2.383   -17.436
329.377      2.397   -17.899
334.168      2.410   -18.370
339.028      2.422   -18.851
343.959      2.434   -19.341
348.962      2.444   -19.840
354.038      2.454   -20.349
359.188      2.463   -20.867
364.412      2.471   -21.394
369.713      2.478   -21.930
375.090      2.484   -22.474
380.546      2.488   -23.028
386.081      2.492   -23.590
391.697      2.494   -24.161
397.394      2.496   -24.740
403.175      2.495   -25.327
409.039      2.494   -25.922
414.989      2.491   -26.525
421.025      2.487   -27.135
427.149      2.482   -27.753
433.362      2.475   -28.377
439.665      2.466   -29.007
446.060      2.456   -29.644
452.548      2.444   -30.286
459.131      2.431   -30.934
465.809      2.416   -31.587
472.584      2.400   -32.244
479.458      2.381   -32.904
486.432      2.361   -33.569
493.507      2.340   -34.236
500.686      2.317   -34.906
507.968      2.292   -35.577
515.357      2.265   -36.249
522.853      2.237   -36.921
530.458      2.207   -37.594
538.174      2.176   -38.266
546.002      2.144   -38.937
553.943      2.109   -39.605
562.001      2.074   -40.270
570.175      2.037   -40.933
578.469      2.000   -41.592
586.883      1.961   -42.246
595.419      1.921   -42.896
604.080      1.881   -43.540
612.866      1.840   -44.178
621.780      1.799   -44.811
630.824      1.758   -45.439
640.000      1.716   -46.059
649.309      1.675   -46.674
658.753      1.635   -47.283
668.335      1.595   -47.888
678.056      1.556   -48.488
687.919      1.518   -49.084
697.925      1.482   -49.677
708.077      1.447   -50.269
718.376      1.414   -50.861
728.825      1.384   -51.456
739.426      1.355   -52.055
750.181      1.329   -52.659
761.093      1.306   -53.272
772.163      1.285   -53.895
783.394      1.267   -54.534
794.789      1.252   -55.189
806.349      1.239   -55.864
818.078      1.230   -56.562
829.977      1.222   -57.285
842.050      1.217   -58.038
854.298      1.213   -58.823
866.724      1.212   -59.643
879.330      1.211   -60.500
892.120      1.212   -61.397
905.097      1.212   -62.336
918.262      1.213   -63.319
931.618      1.213   -64.348
945.169      1.211   -65.422
958.917      1.208   -66.543
972.864      1.202   -67.712
987.015      1.193   -68.929
1001.37      1.180   -70.192
1015.94      1.162   -71.500
1030.71      1.140   -72.851
1045.71      1.112   -74.246
1060.92      1.077   -75.680
1076.35      1.036   -77.150
1092.00      0.987   -78.653
1107.89      0.931   -80.185
1124.00      0.866   -81.744
1140.35      0.793   -83.324
1156.94      0.712   -84.919
1173.77      0.621   -86.525
1190.84      0.521   -88.136
1208.16      0.413   -89.747
1225.73      0.296   -91.353
1243.56      0.170   -92.946
1261.65      0.037   -94.522
1280.00     -0.104   -96.076
1298.62     -0.252   -97.604
1317.51     -0.405   -99.100
1336.67     -0.562  -100.562
1356.11     -0.723  -101.989
1375.84     -0.886  -103.380
1395.85     -1.050  -104.738
1416.15     -1.213  -106.065
1436.75     -1.374  -107.367
1457.65     -1.532  -108.653
1478.85     -1.686  -109.932
1500.36     -1.834  -111.217
1522.19     -1.978  -112.519
1544.33     -2.117  -113.852
1566.79     -2.251  -115.233
1589.58     -2.382  -116.673
1612.70     -2.512  -118.186
1636.16     -2.641  -119.781
1659.95     -2.773  -121.467
1684.10     -2.909  -123.252
1708.60     -3.053  -125.135
1733.45     -3.206  -127.118
1758.66     -3.373  -129.196
1784.24     -3.555  -131.364
1810.19     -3.754  -133.613
1836.52     -3.974  -135.931
1863.24     -4.215  -138.305
1890.34     -4.479  -140.719
1917.83     -4.768  -143.161
1945.73     -5.081  -145.610
1974.03     -5.420  -148.050
2002.74     -5.783  -150.465
2031.87     -6.171  -152.843
2061.43     -6.581  -155.170
2091.41     -7.012  -157.437
2121.83     -7.464  -159.640
2152.69     -7.933  -161.783
2184.01     -8.418  -163.872
2215.77     -8.919  -165.922
2248.00     -9.436  -167.952
2280.70     -9.971  -169.986
2313.87    -10.526  -172.053
2347.53    -11.108  -174.176
2381.68    -11.723  -176.378
2416.32    -12.381  -178.674
2451.46    -13.095   178.924
2487.12    -13.879   176.422
2523.30    -14.752   173.837
2560.00    -15.734   171.199
2597.24    -16.855   168.553
2635.01    -18.151   165.977
2673.34    -19.674   163.583
2712.23    -21.507   161.561
2751.68    -23.789   160.273
2791.70    -26.795   160.600
2832.31    -31.322   163.129
2873.50    -41.767  -166.560
2915.30    -43.235   -82.833
2957.70    -31.793   -52.451
3000.72    -27.319   -50.957
3044.37    -24.496   -52.532
3088.65    -22.472   -55.130
3133.58    -20.933   -58.166
3179.16    -19.723   -61.386
3225.40    -18.751   -64.649
3272.31    -17.956   -67.871
3319.91    -17.294   -71.005
3368.20    -16.729   -74.043
3417.19    -16.233   -77.017
3466.89    -15.786   -79.990
3517.32    -15.376   -83.047
3568.48    -14.998   -86.276
3620.39    -14.656   -89.756
3673.05    -14.359   -93.530
3726.47    -14.119   -97.602
3780.67    -13.948  -101.936
3835.67    -13.856  -106.466
3891.46    -13.847  -111.095
3948.06    -13.921  -115.719
4005.49    -14.071  -120.239
4063.75    -14.284  -124.585
4122.86    -14.543  -128.728
4182.82    -14.832  -132.703
4243.66    -15.139  -136.613
4305.39    -15.462  -140.596
4368.01    -15.812  -144.791
4431.55    -16.214  -149.296
4496.01    -16.698  -154.137
4561.40    -17.294  -159.253
4627.75    -18.032  -164.520
4695.06    -18.932  -169.779
4763.35    -20.012  -174.866
4832.64    -21.288  -179.651
4902.93    -22.788   175.924
4974.24    -24.578   171.854
5046.60    -26.808   168.167
5120.00    -29.828   165.236
5194.47    -34.454   168.065
5270.03    -43.743  -153.120
5346.68    -42.180  -102.037
5424.45    -34.569   -67.190
5503.35    -30.416   -63.736
5583.40    -27.606   -65.547
5664.61    -25.521   -69.684
5747.01    -23.940   -75.231
5830.60    -22.766   -81.617
5915.41    -21.936   -88.354
6001.45    -21.392   -95.011
6088.74    -21.061  -101.263
6177.30    -20.861  -107.008
6267.15    -20.720  -112.444
6358.31    -20.606  -118.001
6450.80    -20.541  -124.119
6544.62    -20.594  -130.998
6639.82    -20.835  -138.496
6736.40    -21.308  -146.237
6834.38    -22.019  -153.802
6933.79    -22.938  -160.934
7034.64    -24.042  -167.703
7136.96    -25.359  -174.462
7240.77    -27.017   178.472
7346.09    -29.259   171.169
7452.94    -32.522   164.416
7561.35    -38.035   159.666
7671.33    -55.621  -122.805
7782.91    -40.197   -64.018
7896.12    -33.939   -61.731
8010.97    -30.674   -67.620
8127.49    -28.552   -74.442
8245.71    -27.013   -81.695
8365.65    -25.862   -89.577
8487.33    -25.050   -98.108
8610.78    -24.552  -107.057
8736.03    -24.336  -116.225
8863.09    -24.384  -125.562
8992.01    -24.704  -135.014
9122.80    -25.315  -144.410
9255.50    -26.221  -153.593
9390.12    -27.448  -162.660
9526.70    -29.114  -171.848
9665.27    -31.493   178.986
9805.86    -35.145   171.869
9948.49    -41.762   176.936
10093.2    -53.427  -124.947
10240.0    -39.534   -59.630
10388.9    -34.207   -64.727
10540.1    -31.052   -74.733
10693.4    -29.180   -86.930
10848.9    -28.248   -98.863
11006.7    -27.836  -109.145
11166.8    -27.603  -118.860
11329.2    -27.629  -129.817
11494.0    -28.187  -141.643
11661.2    -29.335  -152.754
11830.8    -31.022  -162.821
12002.9    -33.559  -172.104
12177.5    -37.641  -179.253
12354.6    -47.572  -163.578
12534.3    -49.840   -91.303
12716.6    -38.450   -68.982
12901.6    -34.592   -77.860
13089.2    -32.454   -87.765
13279.6    -30.950   -98.995
13472.8    -30.115  -112.938
13668.8    -30.161  -127.597
13867.6    -30.868  -140.818
14069.3    -32.088  -153.633
14273.9    -34.253  -166.133
14481.5    -38.242  -175.277
14692.2    -46.572  -152.642
14905.9    -49.166  -109.321
15122.7    -39.973   -74.099
15342.7    -35.506   -81.880
15565.8    -33.259   -96.117
15792.2    -32.165  -111.363
16021.9    -31.943  -128.111
16255.0    -32.693  -145.162
16491.4    -34.400  -161.864
16731.3    -37.413  -178.786
16974.7    -43.389   165.441
17221.6    -66.383  -117.687
17472.1    -42.587   -54.436
17726.2    -37.958   -73.083
17984.0    -35.386   -89.441
18245.6    -34.170  -109.215
18511.0    -34.367  -128.484
18780.2    -35.525  -147.284
19053.4    -38.332  -165.740
19330.5    -44.913  -178.340
19611.7    -59.009   -94.097
19897.0    -42.625   -57.601
20186.4    -37.901   -76.171
20480.0    -36.056   -96.345
20777.9    -35.510  -116.312
21080.1    -36.517  -137.883
21386.7    -39.326  -156.204
21697.8    -45.133  -160.962
22013.4    -56.753  -119.799
22333.6    -42.974   -69.186
22658.4    -38.453   -86.668
22988.0    -37.013  -109.672
23322.4    -37.342  -131.608
23661.6    -39.499  -155.790
24005.8    -45.482   178.458
24355.0    -67.040   -78.242
24709.2    -44.131   -47.827
25068.6    -39.987   -75.256
25433.2    -38.400   -99.285
25803.2    -39.071  -124.023
26178.5    -42.818  -143.320
26559.3    -52.514  -108.355
26945.6    -48.597   -84.074
27337.5    -41.607   -80.713
27735.2    -39.578  -100.285
28138.6    -40.019  -125.349
28547.9    -43.397  -145.634
28963.1    -55.958  -125.109
29384.4    -49.162   -75.718
29811.8    -41.788   -81.360
30245.4    -40.524  -105.976
30685.3    -42.025  -129.914
31131.7    -47.878  -134.769
31584.5    -56.605  -100.649
32043.9    -44.467   -72.458
32510.0    -41.467   -97.191
32982.8    -42.550  -123.761
33462.6    -48.233  -137.785
33949.3    -57.630  -106.933
34443.1    -45.061   -67.653
34944.1    -42.419   -94.680
35452.4    -44.376  -121.352
35968.0    -53.462  -116.020
36491.2    -50.641   -77.957
37022.0    -44.127   -79.682
37560.5    -43.507  -106.878
38106.8    -48.603  -128.356
38661.1    -60.326   -75.619
39223.4    -46.237   -44.615
39793.9    -44.114   -66.091
