Freq[Hz]     dBSPL  Phase[Deg]
5.00000      1.158     0.162
5.07273      1.158     0.165
5.14651      1.158     0.167
5.22137      1.158     0.170
5.29732      1.158     0.172
5.37437      1.158     0.175
5.45254      1.158     0.177
5.53185      1.158     0.180
5.61231      1.158     0.183
5.69394      1.159     0.185
5.77676      1.159     0.188
5.86079      1.159     0.191
5.94604      1.159     0.193
6.03252      1.159     0.196
6.12027      1.159     0.199
6.20929      1.159     0.202
6.29961      1.159     0.205
6.39124      1.159     0.208
6.48420      1.159     0.211
6.57851      1.159     0.214
6.67420      1.160     0.217
6.77128      1.160     0.221
6.86977      1.160     0.224
6.96969      1.160     0.227
7.07107      1.160     0.230
7.17392      1.160     0.234
7.27827      1.160     0.237
7.38413      1.160     0.241
7.49154      1.161     0.244
7.60050      1.161     0.248
7.71105      1.161     0.251
7.82321      1.161     0.255
7.93701      1.161     0.259
8.05245      1.161     0.262
8.16958      1.161     0.266
8.28841      1.162     0.270
8.40896      1.162     0.274
8.53128      1.162     0.278
8.65537      1.162     0.282
8.78126      1.162     0.286
8.90899      1.162     0.290
9.03857      1.163     0.294
9.17004      1.163     0.299
9.30342      1.163     0.303
9.43874      1.163     0.307
9.57603      1.163     0.312
9.71532      1.164     0.316
9.85663      1.164     0.321
10.0000      1.164     0.326
10.1455      1.164     0.330
10.2930      1.165     0.335
10.4427      1.165     0.340
10.5946      1.165     0.345
10.7487      1.165     0.350
10.9051      1.166     0.355
11.0637      1.166     0.360
11.2246      1.166     0.365
11.3879      1.167     0.370
11.5535      1.167     0.375
11.7216      1.167     0.381
11.8921      1.168     0.386
12.0650      1.168     0.392
12.2405      1.168     0.397
12.4186      1.169     0.403
12.5992      1.169     0.409
12.7825      1.169     0.415
12.9684      1.170     0.421
13.1570      1.170     0.426
13.3484      1.171     0.433
13.5426      1.171     0.439
13.7395      1.172     0.445
13.9394      1.172     0.451
14.1421      1.172     0.458
14.3478      1.173     0.464
14.5565      1.173     0.471
14.7683      1.174     0.477
14.9831      1.174     0.484
15.2010      1.175     0.490
15.4221      1.176     0.497
15.6464      1.176     0.503
15.8740      1.177     0.510
16.1049      1.177     0.517
16.3392      1.178     0.523
16.5768      1.179     0.530
16.8179      1.179     0.537
17.0626      1.180     0.544
17.3107      1.181     0.551
17.5625      1.181     0.558
17.8180      1.182     0.566
18.0771      1.183     0.573
18.3401      1.184     0.581
18.6068      1.184     0.588
18.8775      1.185     0.596
19.1521      1.186     0.603
19.4306      1.187     0.611
19.7133      1.188     0.619
20.0000      1.189     0.627
20.2909      1.190     0.635
20.5860      1.191     0.643
20.8855      1.192     0.651
21.1893      1.193     0.660
21.4975      1.194     0.668
21.8102      1.195     0.677
22.1274      1.196     0.685
22.4492      1.197     0.694
22.7758      1.198     0.703
23.1071      1.200     0.711
23.4432      1.201     0.720
23.7841      1.202     0.729
24.1301      1.204     0.738
24.4811      1.205     0.748
24.8372      1.206     0.757
25.1984      1.208     0.766
25.5649      1.209     0.776
25.9368      1.211     0.785
26.3141      1.212     0.795
26.6968      1.214     0.804
27.0851      1.216     0.814
27.4791      1.217     0.824
27.8788      1.219     0.834
28.2843      1.221     0.844
28.6957      1.223     0.854
29.1131      1.225     0.864
29.5365      1.227     0.874
29.9661      1.229     0.884
30.4020      1.231     0.894
30.8442      1.233     0.905
31.2929      1.235     0.915
31.7480      1.238     0.925
32.2098      1.240     0.936
32.6783      1.242     0.946
33.1536      1.245     0.957
33.6359      1.247     0.967
34.1251      1.250     0.978
34.6215      1.253     0.988
35.1250      1.255     0.999
35.6359      1.258     1.010
36.1543      1.261     1.020
36.6802      1.264     1.031
37.2137      1.267     1.042
37.7550      1.270     1.052
38.3041      1.273     1.063
38.8613      1.277     1.073
39.4265      1.280     1.084
40.0000      1.284     1.094
40.5818      1.287     1.105
41.1721      1.291     1.115
41.7710      1.295     1.125
42.3785      1.299     1.135
42.9949      1.302     1.145
43.6203      1.307     1.155
44.2548      1.311     1.165
44.8985      1.315     1.175
45.5515      1.320     1.184
46.2141      1.324     1.194
46.8863      1.329     1.203
47.5683      1.334     1.212
48.2602      1.338     1.221
48.9621      1.343     1.230
49.6743      1.349     1.238
50.3968      1.354     1.246
51.1299      1.359     1.254
51.8736      1.365     1.262
52.6281      1.371     1.269
53.3936      1.376     1.276
54.1702      1.382     1.283
54.9581      1.389     1.289
55.7575      1.395     1.295
56.5685      1.401     1.300
57.3914      1.408     1.305
58.2261      1.415     1.310
59.0730      1.422     1.314
59.9323      1.429     1.317
60.8040      1.436     1.320
61.6884      1.444     1.322
62.5857      1.451     1.324
63.4960      1.459     1.325
64.4196      1.467     1.325
65.3566      1.475     1.325
66.3073      1.484     1.324
67.2717      1.492     1.322
68.2502      1.501     1.319
69.2429      1.510     1.316
70.2501      1.519     1.311
71.2719      1.529     1.306
72.3086      1.538     1.299
73.3603      1.548     1.292
74.4274      1.558     1.283
75.5099      1.568     1.273
76.6083      1.579     1.263
77.7226      1.589     1.250
78.8531      1.600     1.237
80.0000      1.611     1.222
81.1636      1.623     1.206
82.3442      1.634     1.188
83.5419      1.646     1.169
84.7570      1.658     1.148
85.9899      1.670     1.126
87.2406      1.683     1.101
88.5096      1.695     1.075
89.7970      1.708     1.048
91.1031      1.722     1.018
92.4282      1.735     0.986
93.7726      1.749     0.952
95.1366      1.762     0.917
96.5204      1.777     0.879
97.9243      1.791     0.838
99.3486      1.806     0.795
100.794      1.820     0.750
102.260      1.835     0.703
103.747      1.851     0.652
105.256      1.866     0.600
106.787      1.882     0.544
108.340      1.898     0.485
109.916      1.914     0.424
111.515      1.930     0.359
113.137      1.947     0.291
114.783      1.964     0.221
116.452      1.981     0.147
118.146      1.998     0.069
119.865      2.015    -0.012
121.608      2.033    -0.097
123.377      2.050    -0.185
125.171      2.068    -0.277
126.992      2.086    -0.372
128.839      2.104    -0.472
130.713      2.122    -0.576
132.615      2.141    -0.684
134.543      2.159    -0.796
136.500      2.178    -0.912
138.486      2.196    -1.033
140.500      2.215    -1.158
142.544      2.234    -1.287
144.617      2.252    -1.422
146.721      2.271    -1.561
148.855      2.290    -1.704
151.020      2.309    -1.853
153.217      2.327    -2.006
155.445      2.346    -2.164
157.706      2.365    -2.328
160.000      2.383    -2.496
162.327      2.402    -2.670
164.688      2.420    -2.849
167.084      2.438    -3.033
169.514      2.456    -3.222
171.980      2.474    -3.416
174.481      2.491    -3.616
177.019      2.508    -3.821
179.594      2.525    -4.032
182.206      2.542    -4.248
184.856      2.559    -4.469
187.545      2.575    -4.695
190.273      2.590    -4.927
193.041      2.605    -5.164
195.849      2.620    -5.406
198.697      2.635    -5.653
201.587      2.648    -5.905
204.520      2.662    -6.162
207.494      2.675    -6.424
210.512      2.687    -6.691
213.574      2.699    -6.963
216.681      2.710    -7.239
219.833      2.720    -7.519
223.030      2.730    -7.803
226.274      2.739    -8.092
229.565      2.747    -8.384
232.905      2.755    -8.680
236.292      2.762    -8.979
239.729      2.768    -9.281
243.216      2.773    -9.586
246.754      2.778    -9.894
250.343      2.781   -10.204
253.984      2.784   -10.517
257.678      2.787   -10.830
261.426      2.788   -11.146
265.229      2.789   -11.461
269.087      2.788   -11.778
273.001      2.787   -12.096
276.972      2.786   -12.413
281.000      2.783   -12.729
285.088      2.780   -13.045
289.234      2.777   -13.360
293.441      2.772   -13.673
297.709      2.767   -13.984
302.040      2.762   -14.293
306.433      2.756   -14.600
310.890      2.750   -14.903
315.412      2.744   -15.203
320.000      2.737   -15.500
324.655      2.731   -15.794
329.377      2.724   -16.084
334.168      2.718   -16.370
339.028      2.711   -16.652
343.959      2.706   -16.930
348.962      2.700   -17.205
354.038      2.696   -17.477
359.188      2.692   -17.745
364.412      2.689   -18.011
369.713      2.688   -18.274
375.090      2.687   -18.536
380.546      2.688   -18.798
386.081      2.690   -19.060
391.697      2.694   -19.323
397.394      2.700   -19.588
403.175      2.708   -19.857
409.039      2.717   -20.131
414.989      2.729   -20.413
421.025      2.742   -20.702
427.149      2.757   -21.001
433.362      2.775   -21.311
439.665      2.794   -21.635
446.060      2.815   -21.974
452.548      2.838   -22.330
459.131      2.863   -22.706
465.809      2.889   -23.101
472.584      2.917   -23.518
479.458      2.945   -23.958
486.432      2.974   -24.424
493.507      3.004   -24.916
500.686      3.034   -25.435
507.968      3.064   -25.982
515.357      3.093   -26.557
522.853      3.121   -27.160
530.458      3.148   -27.793
538.174      3.173   -28.454
546.002      3.196   -29.142
553.943      3.217   -29.858
562.001      3.235   -30.598
570.175      3.249   -31.362
578.469      3.260   -32.149
586.883      3.267   -32.955
595.419      3.270   -33.779
604.080      3.269   -34.616
612.866      3.263   -35.464
621.780      3.252   -36.321
630.824      3.237   -37.182
640.000      3.217   -38.043
649.309      3.192   -38.900
658.753      3.163   -39.750
668.335      3.129   -40.589
678.056      3.092   -41.412
687.919      3.052   -42.218
697.925      3.009   -43.001
708.077      2.964   -43.760
718.376      2.918   -44.493
728.825      2.872   -45.201
739.426      2.827   -45.882
750.181      2.784   -46.537
761.093      2.743   -47.170
772.163      2.706   -47.785
783.394      2.674   -48.387
794.789      2.647   -48.984
806.349      2.626   -49.582
818.078      2.611   -50.191
829.977      2.603   -50.820
842.050      2.600   -51.481
854.298      2.603   -52.180
866.724      2.610   -52.928
879.330      2.621   -53.732
892.120      2.634   -54.597
905.097      2.647   -55.529
918.262      2.658   -56.529
931.618      2.667   -57.598
945.169      2.671   -58.731
958.917      2.668   -59.925
972.864      2.658   -61.174
987.015      2.638   -62.467
1001.37      2.608   -63.794
1015.94      2.567   -65.142
1030.71      2.515   -66.497
1045.71      2.452   -67.848
1060.92      2.379   -69.178
1076.35      2.296   -70.476
1092.00      2.206   -71.728
1107.89      2.110   -72.926
1124.00      2.012   -74.066
1140.35      1.914   -75.146
1156.94      1.819   -76.170
1173.77      1.730   -77.148
1190.84      1.650   -78.097
1208.16      1.579   -79.038
1225.73      1.520   -79.994
1243.56      1.471   -80.990
1261.65      1.432   -82.052
1280.00      1.399   -83.201
1298.62      1.369   -84.454
1317.51      1.337   -85.817
1336.67      1.301   -87.292
1356.11      1.255   -88.870
1375.84      1.196   -90.538
1395.85      1.120   -92.271
1416.15      1.026   -94.044
1436.75      0.914   -95.823
1457.65      0.784   -97.580
1478.85      0.638   -99.287
1500.36      0.480  -100.918
1522.19      0.316  -102.459
1544.33      0.150  -103.907
1566.79     -0.010  -105.276
1589.58     -0.161  -106.592
1612.70     -0.299  -107.892
1636.16     -0.422  -109.225
1659.95     -0.534  -110.636
1684.10     -0.638  -112.167
1708.60     -0.741  -113.843
1733.45     -0.852  -115.672
1758.66     -0.977  -117.641
1784.24     -1.123  -119.722
1810.19     -1.296  -121.871
1836.52     -1.496  -124.033
1863.24     -1.722  -126.156
1890.34     -1.970  -128.191
1917.83     -2.231  -130.111
1945.73     -2.497  -131.904
1974.03     -2.758  -133.595
2002.74     -3.007  -135.233
2031.87     -3.242  -136.890
2061.43     -3.464  -138.640
2091.41     -3.681  -140.545
2121.83     -3.904  -142.638
2152.69     -4.146  -144.919
2184.01     -4.418  -147.353
2215.77     -4.727  -149.873
2248.00     -5.075  -152.405
2280.70     -5.461  -154.873
2313.87     -5.875  -157.227
2347.53     -6.307  -159.447
2381.68     -6.746  -161.560
2416.32     -7.186  -163.631
2451.46     -7.626  -165.748
2487.12     -8.074  -167.987
2523.30     -8.544  -170.392
2560.00     -9.051  -172.959
2597.24     -9.608  -175.648
2635.01    -10.222  -178.386
2673.34    -10.895   178.891
2712.23    -11.625   176.214
2751.68    -12.411   173.564
2791.70    -13.257   170.887
2832.31    -14.257   168.205
2873.50    -15.383   165.593
2915.30    -16.641   163.021
2957.70    -18.071   160.385
3000.72    -19.754   157.546
3044.37    -21.844   154.419
3088.65    -24.639   151.109
3133.58    -28.811   148.201
3179.16    -36.825   148.452
3225.40    -40.782   -69.432
3272.31    -31.785   -58.452
3319.91    -27.500   -56.072
3368.20    -24.852   -56.109
3417.19    -22.850   -56.216
3466.89    -21.118   -56.795
3517.32    -19.558   -58.491
3568.48    -18.198   -61.536
3620.39    -17.088   -65.652
3673.05    -16.248   -70.277
3726.47    -15.646   -74.809
3780.67    -15.211   -78.821
3835.67    -14.850   -82.232
3891.46    -14.491   -85.344
3948.06    -14.121   -88.636
4005.49    -13.786   -92.400
4063.75    -13.540   -96.548
4122.86    -13.403  -100.722
4182.82    -13.341  -104.598
4243.66    -13.291  -108.174
4305.39    -13.213  -111.810
4368.01    -13.135  -115.933
4431.55    -13.126  -120.642
4496.01    -13.243  -125.617
4561.40    -13.478  -130.365
4627.75    -13.766  -134.640
4695.06    -14.039  -138.686
4763.35    -14.296  -143.018
4832.64    -14.603  -147.907
4902.93    -15.024  -153.144
4974.24    -15.565  -158.336
5046.60    -16.181  -163.361
5120.00    -16.852  -168.497
5194.47    -17.691  -173.533
5270.03    -18.630  -178.588
5346.68    -19.720   175.995
5424.45    -21.067   170.313
5503.35    -22.728   164.902
5583.40    -24.688   159.720
5664.61    -27.101   153.232
5747.01    -30.722   142.951
5830.60    -38.113   121.225
5915.41    -46.965   -73.089
6001.45    -35.425   -38.424
6088.74    -30.481   -50.419
6177.30    -27.546   -56.564
6267.15    -25.417   -62.549
6358.31    -23.888   -68.454
6450.80    -22.680   -73.581
6544.62    -21.557   -78.947
6639.82    -20.617   -85.764
6736.40    -20.037   -93.276
6834.38    -19.737  -100.031
6933.79    -19.495  -106.113
7034.64    -19.297  -112.695
7136.96    -19.287  -119.813
7240.77    -19.463  -126.678
7346.09    -19.737  -133.330
7452.94    -20.126  -140.283
7561.35    -20.644  -147.606
7671.33    -21.345  -154.978
7782.91    -22.218  -162.187
7896.12    -23.281  -169.804
8010.97    -24.758  -177.879
8127.49    -26.768   175.265
8245.71    -29.168   169.718
8365.65    -32.558   162.517
8487.33    -40.468   159.266
8610.78    -66.426  -146.351
8736.03    -37.580   -56.891
8863.09    -32.260   -61.145
8992.01    -29.024   -69.081
9122.80    -27.033   -78.105
9255.50    -25.650   -86.548
9390.12    -24.644   -95.541
9526.70    -24.040  -104.520
9665.27    -23.642  -113.301
9805.86    -23.521  -122.130
9948.49    -23.638  -130.929
10093.2    -23.995  -139.960
10240.0    -24.613  -149.889
10388.9    -25.829  -159.727
10540.1    -27.315  -167.011
10693.4    -29.111  -176.146
10848.9    -32.344   176.588
11006.7    -36.718   178.316
11166.8    -45.429  -149.514
11329.2    -44.237  -100.755
11494.0    -35.926   -72.387
11661.2    -31.888   -78.465
11830.8    -29.635   -87.064
12002.9    -28.111   -97.098
12177.5    -27.211  -107.906
12354.6    -26.756  -118.546
12534.3    -26.645  -130.166
12716.6    -26.991  -141.791
12901.6    -27.752  -154.479
13089.2    -29.282  -166.327
13279.6    -31.180  -177.230
13472.8    -34.269   169.149
13668.8    -40.190   156.801
13867.6    -56.002  -120.958
14069.3    -41.404   -59.073
14273.9    -35.385   -65.530
14481.5    -32.294   -79.143
14692.2    -30.557   -92.505
14905.9    -29.434  -106.822
15122.7    -29.046  -121.091
15342.7    -29.385  -136.537
15565.8    -30.134  -150.365
15792.2    -32.238  -166.117
16021.9    -34.928  -176.210
16255.0    -39.809   173.535
16491.4    -56.215  -139.897
16731.3    -43.268   -72.767
16974.7    -36.714   -72.669
17221.6    -33.719   -84.910
17472.1    -31.879  -101.401
17726.2    -31.333  -115.045
17984.0    -31.599  -132.055
18245.6    -32.384  -146.980
18511.0    -34.651  -161.823
18780.2    -38.676  -172.688
19053.4    -48.346  -151.450
19330.5    -47.419   -92.627
19611.7    -38.351   -80.798
19897.0    -35.067   -91.902
20186.4    -33.344  -108.718
20480.0    -32.960  -125.671
20777.9    -33.702  -142.134
21080.1    -35.615  -158.322
21386.7    -39.454  -170.694
21697.8    -48.649  -150.446
22013.4    -48.283  -107.829
22333.6    -39.226   -86.890
22658.4    -35.913   -99.931
22988.0    -34.727  -119.041
23322.4    -34.930  -137.614
23661.6    -36.664  -156.000
24005.8    -40.878  -170.042
24355.0    -52.197  -133.247
24709.2    -46.981   -96.355
25068.6    -39.416   -90.135
25433.2    -36.760  -108.386
25803.2    -36.067  -128.261
26178.5    -37.201  -148.610
26559.3    -40.673  -167.103
26945.6    -50.461  -148.728
27337.5    -49.067  -108.385
27735.2    -40.770   -96.496
28138.6    -37.840  -116.371
28547.9    -37.490  -139.038
28963.1    -39.057  -161.505
29384.4    -44.132   172.701
29811.8    -63.063  -160.147
30245.4    -43.825   -61.735
30685.3    -39.389   -92.923
31131.7    -38.595  -123.604
31584.5    -40.340  -148.302
32043.9    -46.121  -168.021
32510.0    -60.390  -112.055
32982.8    -43.450   -73.051
33462.6    -39.574   -99.513
33949.3    -39.481  -128.865
34443.1    -42.957  -155.248
34944.1    -55.948  -127.781
35452.4    -47.453   -88.193
35968.0    -41.668   -97.912
36491.2    -40.345  -123.299
37022.0    -43.370  -149.311
37560.5    -55.373  -125.544
38106.8    -48.096   -93.305
38661.1    -42.704   -96.385
39223.4    -41.735  -119.020
39793.9    -45.709  -127.206
