Freq[Hz]     dBSPL  Phase[Deg]
5.00000      1.032     0.086
5.07273      1.032     0.087
5.14651      1.032     0.088
5.22137      1.032     0.089
5.29732      1.033     0.091
5.37437      1.033     0.092
5.45254      1.033     0.093
5.53185      1.033     0.095
5.61231      1.033     0.096
5.69394      1.033     0.098
5.77676      1.033     0.099
5.86079      1.033     0.101
5.94604      1.033     0.102
6.03252      1.033     0.104
6.12027      1.033     0.105
6.20929      1.033     0.107
6.29961      1.033     0.108
6.39124      1.033     0.110
6.48420      1.033     0.112
6.57851      1.033     0.113
6.67420      1.033     0.115
6.77128      1.033     0.117
6.86977      1.033     0.118
6.96969      1.034     0.120
7.07107      1.034     0.122
7.17392      1.034     0.124
7.27827      1.034     0.125
7.38413      1.034     0.127
7.49154      1.034     0.129
7.60050      1.034     0.131
7.71105      1.034     0.133
7.82321      1.034     0.135
7.93701      1.034     0.137
8.05245      1.034     0.139
8.16958      1.034     0.141
8.28841      1.034     0.143
8.40896      1.035     0.145
8.53128      1.035     0.147
8.65537      1.035     0.150
8.78126      1.035     0.152
8.90899      1.035     0.154
9.03857      1.035     0.156
9.17004      1.035     0.159
9.30342      1.035     0.161
9.43874      1.035     0.163
9.57603      1.036     0.166
9.71532      1.036     0.168
9.85663      1.036     0.171
10.0000      1.036     0.173
10.1455      1.036     0.176
10.2930      1.036     0.178
10.4427      1.036     0.181
10.5946      1.037     0.183
10.7487      1.037     0.186
10.9051      1.037     0.189
11.0637      1.037     0.191
11.2246      1.037     0.194
11.3879      1.037     0.197
11.5535      1.038     0.200
11.7216      1.038     0.203
11.8921      1.038     0.206
12.0650      1.038     0.209
12.2405      1.038     0.212
12.4186      1.039     0.215
12.5992      1.039     0.218
12.7825      1.039     0.221
12.9684      1.039     0.224
13.1570      1.040     0.228
13.3484      1.040     0.231
13.5426      1.040     0.234
13.7395      1.040     0.238
13.9394      1.041     0.241
14.1421      1.041     0.244
14.3478      1.041     0.248
14.5565      1.041     0.252
14.7683      1.042     0.255
14.9831      1.042     0.259
15.2010      1.042     0.262
15.4221      1.043     0.265
15.6464      1.043     0.269
15.8740      1.043     0.272
16.1049      1.044     0.276
16.3392      1.044     0.279
16.5768      1.044     0.283
16.8179      1.045     0.286
17.0626      1.045     0.290
17.3107      1.046     0.294
17.5625      1.046     0.297
17.8180      1.046     0.301
18.0771      1.047     0.305
18.3401      1.047     0.309
18.6068      1.048     0.313
18.8775      1.048     0.317
19.1521      1.049     0.321
19.4306      1.049     0.325
19.7133      1.050     0.329
20.0000      1.050     0.333
20.2909      1.051     0.337
20.5860      1.051     0.341
20.8855      1.052     0.346
21.1893      1.053     0.350
21.4975      1.053     0.355
21.8102      1.054     0.359
22.1274      1.055     0.363
22.4492      1.055     0.368
22.7758      1.056     0.373
23.1071      1.057     0.377
23.4432      1.057     0.382
23.7841      1.058     0.387
24.1301      1.059     0.392
24.4811      1.060     0.397
24.8372      1.061     0.401
25.1984      1.061     0.406
25.5649      1.062     0.411
25.9368      1.063     0.416
26.3141      1.064     0.422
26.6968      1.065     0.427
27.0851      1.066     0.432
27.4791      1.067     0.437
27.8788      1.068     0.443
28.2843      1.069     0.448
28.6957      1.070     0.453
29.1131      1.071     0.459
29.5365      1.073     0.464
29.9661      1.074     0.470
30.4020      1.075     0.476
30.8442      1.076     0.481
31.2929      1.078     0.487
31.7480      1.079     0.493
32.2098      1.080     0.499
32.6783      1.082     0.504
33.1536      1.083     0.510
33.6359      1.085     0.516
34.1251      1.086     0.522
34.6215      1.088     0.528
35.1250      1.090     0.534
35.6359      1.091     0.540
36.1543      1.093     0.546
36.6802      1.095     0.552
37.2137      1.097     0.559
37.7550      1.099     0.565
38.3041      1.100     0.571
38.8613      1.102     0.577
39.4265      1.104     0.583
40.0000      1.107     0.589
40.5818      1.109     0.596
41.1721      1.111     0.602
41.7710      1.113     0.608
42.3785      1.116     0.614
42.9949      1.118     0.621
43.6203      1.121     0.627
44.2548      1.123     0.633
44.8985      1.126     0.639
45.5515      1.128     0.645
46.2141      1.131     0.652
46.8863      1.134     0.658
47.5683      1.137     0.664
48.2602      1.140     0.670
48.9621      1.143     0.676
49.6743      1.146     0.681
50.3968      1.150     0.687
51.1299      1.153     0.693
51.8736      1.156     0.699
52.6281      1.160     0.704
53.3936      1.164     0.710
54.1702      1.167     0.715
54.9581      1.171     0.721
55.7575      1.175     0.726
56.5685      1.179     0.731
57.3914      1.184     0.736
58.2261      1.188     0.740
59.0730      1.192     0.745
59.9323      1.197     0.749
60.8040      1.201     0.753
61.6884      1.206     0.757
62.5857      1.211     0.761
63.4960      1.216     0.765
64.4196      1.221     0.768
65.3566      1.227     0.771
66.3073      1.232     0.774
67.2717      1.238     0.776
68.2502      1.244     0.778
69.2429      1.249     0.780
70.2501      1.256     0.781
71.2719      1.262     0.782
72.3086      1.268     0.783
73.3603      1.275     0.783
74.4274      1.281     0.783
75.5099      1.288     0.782
76.6083      1.295     0.781
77.7226      1.303     0.780
78.8531      1.310     0.777
80.0000      1.318     0.774
81.1636      1.326     0.771
82.3442      1.334     0.767
83.5419      1.342     0.762
84.7570      1.350     0.757
85.9899      1.359     0.751
87.2406      1.368     0.744
88.5096      1.377     0.736
89.7970      1.386     0.728
91.1031      1.396     0.719
92.4282      1.406     0.708
93.7726      1.416     0.697
95.1366      1.426     0.685
96.5204      1.436     0.672
97.9243      1.447     0.657
99.3486      1.458     0.642
100.794      1.469     0.625
102.260      1.481     0.607
103.747      1.493     0.588
105.256      1.505     0.568
106.787      1.517     0.546
108.340      1.530     0.522
109.916      1.543     0.497
111.515      1.556     0.471
113.137      1.569     0.443
114.783      1.583     0.413
116.452      1.597     0.382
118.146      1.612     0.348
119.865      1.626     0.313
121.608      1.641     0.275
123.377      1.657     0.236
125.171      1.672     0.194
126.992      1.688     0.151
128.839      1.705     0.105
130.713      1.721     0.056
132.615      1.738     0.005
134.543      1.756    -0.048
136.500      1.773    -0.104
138.486      1.791    -0.163
140.500      1.809    -0.225
142.544      1.828    -0.289
144.617      1.847    -0.357
146.721      1.866    -0.428
148.855      1.886    -0.502
151.020      1.906    -0.579
153.217      1.926    -0.660
155.445      1.947    -0.744
157.706      1.968    -0.832
160.000      1.990    -0.924
162.327      2.011    -1.020
164.688      2.033    -1.120
167.084      2.056    -1.223
169.514      2.079    -1.331
171.980      2.102    -1.444
174.481      2.125    -1.561
177.019      2.149    -1.683
179.594      2.173    -1.809
182.206      2.197    -1.940
184.856      2.222    -2.076
187.545      2.247    -2.218
190.273      2.272    -2.365
193.041      2.298    -2.517
195.849      2.323    -2.674
198.697      2.349    -2.838
201.587      2.376    -3.007
204.520      2.402    -3.182
207.494      2.429    -3.363
210.512      2.456    -3.550
213.574      2.484    -3.744
216.681      2.511    -3.944
219.833      2.539    -4.151
223.030      2.567    -4.365
226.274      2.595    -4.585
229.565      2.623    -4.813
232.905      2.651    -5.048
236.292      2.680    -5.290
239.729      2.708    -5.539
243.216      2.737    -5.796
246.754      2.766    -6.061
250.343      2.794    -6.334
253.984      2.823    -6.614
257.678      2.852    -6.903
261.426      2.880    -7.199
265.229      2.909    -7.504
269.087      2.938    -7.817
273.001      2.966    -8.139
276.972      2.995    -8.470
281.000      3.023    -8.809
285.088      3.051    -9.156
289.234      3.079    -9.513
293.441      3.106    -9.879
297.709      3.134   -10.253
302.040      3.161   -10.637
306.433      3.188   -11.030
310.890      3.214   -11.432
315.412      3.241   -11.844
320.000      3.266   -12.264
324.655      3.292   -12.695
329.377      3.316   -13.134
334.168      3.341   -13.583
339.028      3.365   -14.042
343.959      3.388   -14.509
348.962      3.411   -14.986
354.038      3.433   -15.473
359.188      3.455   -15.970
364.412      3.475   -16.475
369.713      3.496   -16.990
375.090      3.515   -17.514
380.546      3.534   -18.048
386.081      3.552   -18.591
391.697      3.569   -19.143
397.394      3.585   -19.705
403.175      3.600   -20.275
409.039      3.615   -20.854
414.989      3.629   -21.442
421.025      3.641   -22.039
427.149      3.653   -22.645
433.362      3.664   -23.259
439.665      3.674   -23.881
446.060      3.682   -24.512
452.548      3.690   -25.152
459.131      3.697   -25.799
465.809      3.703   -26.455
472.584      3.707   -27.118
479.458      3.711   -27.789
486.432      3.714   -28.468
493.507      3.715   -29.155
500.686      3.716   -29.849
507.968      3.715   -30.550
515.357      3.714   -31.258
522.853      3.711   -31.974
530.458      3.707   -32.697
538.174      3.703   -33.428
546.002      3.697   -34.166
553.943      3.691   -34.910
562.001      3.683   -35.662
570.175      3.675   -36.422
578.469      3.665   -37.189
586.883      3.655   -37.963
595.419      3.644   -38.745
604.080      3.632   -39.535
612.866      3.619   -40.333
621.780      3.605   -41.140
630.824      3.590   -41.956
640.000      3.575   -42.780
649.309      3.558   -43.614
658.753      3.541   -44.457
668.335      3.523   -45.311
678.056      3.504   -46.176
687.919      3.484   -47.051
697.925      3.463   -47.938
708.077      3.442   -48.836
718.376      3.419   -49.748
728.825      3.394   -50.672
739.426      3.369   -51.609
750.181      3.342   -52.560
761.093      3.314   -53.525
772.163      3.285   -54.504
783.394      3.254   -55.498
794.789      3.221   -56.507
806.349      3.186   -57.531
818.078      3.149   -58.569
829.977      3.110   -59.621
842.050      3.069   -60.689
854.298      3.025   -61.771
866.724      2.978   -62.866
879.330      2.929   -63.975
892.120      2.877   -65.095
905.097      2.822   -66.229
918.262      2.763   -67.373
931.618      2.702   -68.526
945.169      2.637   -69.688
958.917      2.569   -70.857
972.864      2.497   -72.033
987.015      2.422   -73.214
1001.37      2.343   -74.397
1015.94      2.261   -75.583
1030.71      2.176   -76.769
1045.71      2.088   -77.956
1060.92      1.997   -79.141
1076.35      1.903   -80.323
1092.00      1.806   -81.502
1107.89      1.707   -82.677
1124.00      1.605   -83.849
1140.35      1.502   -85.017
1156.94      1.397   -86.181
1173.77      1.291   -87.341
1190.84      1.184   -88.500
1208.16      1.075   -89.659
1225.73      0.966   -90.819
1243.56      0.856   -91.981
1261.65      0.745   -93.148
1280.00      0.634   -94.321
1298.62      0.522   -95.504
1317.51      0.409   -96.697
1336.67      0.295   -97.902
1356.11      0.181   -99.120
1375.84      0.065  -100.353
1395.85     -0.053  -101.603
1416.15     -0.173  -102.868
1436.75     -0.294  -104.149
1457.65     -0.418  -105.447
1478.85     -0.544  -106.761
1500.36     -0.673  -108.091
1522.19     -0.804  -109.436
1544.33     -0.937  -110.797
1566.79     -1.072  -112.173
1589.58     -1.210  -113.568
1612.70     -1.350  -114.980
1636.16     -1.492  -116.413
1659.95     -1.635  -117.870
1684.10     -1.781  -119.357
1708.60     -1.928  -120.876
1733.45     -2.078  -122.432
1758.66     -2.231  -124.031
1784.24     -2.387  -125.679
1810.19     -2.547  -127.380
1836.52     -2.713  -129.138
1863.24     -2.886  -130.956
1890.34     -3.067  -132.836
1917.83     -3.257  -134.781
1945.73     -3.458  -136.788
1974.03     -3.672  -138.856
2002.74     -3.899  -140.982
2031.87     -4.141  -143.165
2061.43     -4.400  -145.399
2091.41     -4.676  -147.681
2121.83     -4.972  -150.004
2152.69     -5.287  -152.368
2184.01     -5.623  -154.767
2215.77     -5.982  -157.198
2248.00     -6.365  -159.655
2280.70     -6.773  -162.138
2313.87     -7.208  -164.643
2347.53     -7.672  -167.165
2381.68     -8.168  -169.701
2416.32     -8.697  -172.246
2451.46     -9.263  -174.799
2487.12     -9.869  -177.354
2523.30    -10.519  -179.910
2560.00    -11.219   177.537
2597.24    -11.974   174.983
2635.01    -12.792   172.431
2673.34    -13.686   169.883
2712.23    -14.670   167.341
2751.68    -15.763   164.809
2791.70    -16.995   162.309
2832.31    -18.439   158.852
2873.50    -20.157   154.933
2915.30    -22.269   150.476
2957.70    -25.014   145.002
3000.72    -28.936   137.034
3044.37    -35.723   118.922
3088.65    -43.829    11.097
3133.58    -31.767   -20.473
3179.16    -27.207   -33.534
3225.40    -24.308   -40.728
3272.31    -22.246   -46.271
3319.91    -20.685   -51.064
3368.20    -19.456   -55.413
3417.19    -18.459   -59.457
3466.89    -17.631   -63.288
3517.32    -16.928   -66.986
3568.48    -16.323   -70.628
3620.39    -15.800   -74.287
3673.05    -15.351   -78.010
3726.47    -14.974   -81.808
3780.67    -14.669   -85.662
3835.67    -14.433   -89.530
3891.46    -14.260   -93.351
3948.06    -14.139   -97.081
4005.49    -14.056  -100.713
4063.75    -13.998  -104.282
4122.86    -13.956  -107.862
4182.82    -13.928  -111.547
4243.66    -13.921  -115.422
4305.39    -13.948  -119.535
4368.01    -14.022  -123.886
4431.55    -14.153  -128.449
4496.01    -14.349  -133.185
4561.40    -14.615  -138.051
4627.75    -14.956  -143.019
4695.06    -15.378  -148.073
4763.35    -15.888  -153.186
4832.64    -16.497  -158.323
4902.93    -17.215  -163.438
4974.24    -18.052  -168.490
5046.60    -19.024  -173.443
5120.00    -20.153  -178.274
5194.47    -21.499   176.657
5270.03    -23.153   171.479
5346.68    -25.260   166.220
5424.45    -28.116   160.996
5503.35    -32.479   156.466
5583.40    -41.921   161.798
5664.61    -46.930   -39.126
5747.01    -33.698   -46.001
5830.60    -29.279   -52.398
5915.41    -26.549   -58.604
6001.45    -24.654   -64.935
6088.74    -23.291   -71.312
6177.30    -22.310   -77.498
6267.15    -21.595   -83.241
6358.31    -21.030   -88.506
6450.80    -20.525   -93.655
6544.62    -20.068   -99.259
6639.82    -19.718  -105.632
6736.40    -19.545  -112.602
6834.38    -19.567  -119.726
6933.79    -19.749  -126.672
7034.64    -20.044  -133.483
7136.96    -20.450  -140.432
7240.77    -21.016  -147.614
7346.09    -21.780  -154.828
7452.94    -22.749  -161.858
7561.35    -23.974  -168.609
7671.33    -25.539  -174.956
7782.91    -27.548   179.006
7896.12    -30.398   173.269
8010.97    -35.246   171.024
8127.49    -45.669  -140.641
8245.71    -41.840   -83.925
8365.65    -33.929   -70.055
8487.33    -30.423   -72.364
8610.78    -28.095   -77.878
8736.03    -26.542   -85.237
8863.09    -25.594   -92.683
8992.01    -24.950   -99.200
9122.80    -24.363  -105.745
9255.50    -23.901  -113.686
9390.12    -23.749  -122.842
9526.70    -23.944  -132.221
9665.27    -24.409  -141.433
9805.86    -25.132  -150.673
9948.49    -26.168  -159.706
10093.2    -27.589  -168.660
10240.0    -29.614  -177.466
10388.9    -32.645   175.080
10540.1    -37.546   172.525
10693.4    -49.023  -141.356
10848.9    -41.754   -82.989
11006.7    -34.749   -73.000
11166.8    -31.484   -81.184
11329.2    -29.738   -89.751
11494.0    -28.480   -97.718
11661.2    -27.522  -107.201
11830.8    -27.022  -118.100
12002.9    -26.967  -129.630
12177.5    -27.353  -141.587
12354.6    -28.114  -154.323
12534.3    -29.514  -168.261
12716.6    -31.950   177.976
12901.6    -35.733   167.436
13089.2    -41.547   161.717
13279.6    -59.547  -159.891
13472.8    -40.488   -45.028
13668.8    -34.986   -63.826
13867.6    -32.208   -78.646
14069.3    -30.574   -92.982
14273.9    -29.695  -107.043
14481.5    -29.488  -121.931
14692.2    -29.830  -137.132
14905.9    -30.765  -152.775
15122.7    -32.281  -170.192
15342.7    -35.287   167.237
15565.8    -41.362   138.239
15792.2    -65.363    34.509
16021.9    -41.500   -25.765
16255.0    -36.266   -52.855
16491.4    -33.543   -72.030
16731.3    -32.093   -89.440
16974.7    -31.521  -105.204
17221.6    -31.592  -122.185
17472.1    -32.850  -139.552
17726.2    -35.255  -154.087
17984.0    -39.504  -166.035
18245.6    -52.461  -137.548
18511.0    -45.634   -77.038
18780.2    -38.293   -71.829
19053.4    -35.187   -84.994
19330.5    -33.825  -100.341
19611.7    -33.457  -116.889
19897.0    -34.096  -133.234
20186.4    -35.831  -152.247
20480.0    -40.644  -170.623
20777.9    -55.520  -115.509
21080.1    -45.598   -78.596
21386.7    -38.832   -75.876
21697.8    -35.852   -90.818
22013.4    -34.743  -110.239
22333.6    -35.021  -127.125
22658.4    -36.396  -150.079
22988.0    -41.371  -168.926
23322.4    -56.722  -125.934
23661.6    -45.621   -73.313
24005.8    -39.469   -77.403
24355.0    -36.776   -96.420
24709.2    -36.615  -118.836
25068.6    -37.870  -137.942
25433.2    -41.626  -154.765
25803.2    -53.217  -127.832
26178.5    -47.698   -80.167
26559.3    -40.290   -80.955
26945.6    -38.256  -100.097
27337.5    -37.908  -120.950
27735.2    -39.873  -143.898
28138.6    -46.378  -152.945
28547.9    -55.913   -97.938
28963.1    -42.869   -73.597
29384.4    -39.813   -92.080
29811.8    -39.012  -114.495
30245.4    -40.998  -137.551
30685.3    -48.172  -141.832
31131.7    -53.912   -88.516
31584.5    -43.316   -76.549
32043.9    -40.034   -99.601
32510.0    -40.391  -128.397
32982.8    -44.475  -156.768
33462.6    -60.717  -111.744
33949.3    -46.074   -59.065
34443.1    -41.458   -81.593
34944.1    -41.064  -111.133
35452.4    -44.215  -139.076
35968.0    -61.079  -114.840
36491.2    -47.143   -57.397
37022.0    -42.308   -78.097
37560.5    -42.212  -107.034
38106.8    -47.311  -132.287
38661.1    -69.925   -32.022
39223.4    -45.310   -36.671
39793.9    -42.611   -59.350
