Freq[Hz]     dBSPL  Phase[Deg]
5.00000     -0.118    -0.473
5.07273     -0.118    -0.480
5.14651     -0.118    -0.487
5.22137     -0.118    -0.494
5.29732     -0.118    -0.501
5.37437     -0.118    -0.508
5.45254     -0.118    -0.516
5.53185     -0.118    -0.523
5.61231     -0.118    -0.531
5.69394     -0.118    -0.538
5.77676     -0.118    -0.546
5.86079     -0.118    -0.554
5.94604     -0.118    -0.562
6.03252     -0.118    -0.570
6.12027     -0.118    -0.578
6.20929     -0.118    -0.587
6.29961     -0.118    -0.595
6.39124     -0.118    -0.604
6.48420     -0.118    -0.613
6.57851     -0.118    -0.622
6.67420     -0.118    -0.631
6.77128     -0.118    -0.640
6.86977     -0.118    -0.649
6.96969     -0.118    -0.658
7.07107     -0.118    -0.668
7.17392     -0.118    -0.678
7.27827     -0.118    -0.688
7.38413     -0.118    -0.697
7.49154     -0.118    -0.708
7.60050     -0.118    -0.718
7.71105     -0.118    -0.728
7.82321     -0.118    -0.739
7.93701     -0.118    -0.750
8.05245     -0.118    -0.760
8.16958     -0.118    -0.771
8.28841     -0.118    -0.783
8.40896     -0.118    -0.794
8.53128     -0.118    -0.806
8.65537     -0.118    -0.817
8.78126     -0.118    -0.829
8.90899     -0.118    -0.841
9.03857     -0.118    -0.853
9.17004     -0.118    -0.866
9.30342     -0.118    -0.878
9.43874     -0.118    -0.891
9.57603     -0.118    -0.904
9.71532     -0.118    -0.917
9.85663     -0.118    -0.930
10.0000     -0.118    -0.944
10.1455     -0.118    -0.958
10.2930     -0.118    -0.971
10.4427     -0.118    -0.986
10.5946     -0.118    -1.000
10.7487     -0.118    -1.014
10.9051     -0.118    -1.029
11.0637     -0.118    -1.044
11.2246     -0.118    -1.059
11.3879     -0.118    -1.075
11.5535     -0.118    -1.090
11.7216     -0.118    -1.106
11.8921     -0.118    -1.122
12.0650     -0.118    -1.138
12.2405     -0.118    -1.155
12.4186     -0.118    -1.172
12.5992     -0.117    -1.189
12.7825     -0.117    -1.206
12.9684     -0.117    -1.224
13.1570     -0.117    -1.241
13.3484     -0.117    -1.259
13.5426     -0.117    -1.278
13.7395     -0.117    -1.296
13.9394     -0.117    -1.315
14.1421     -0.117    -1.334
14.3478     -0.117    -1.353
14.5565     -0.117    -1.373
14.7683     -0.117    -1.393
14.9831     -0.117    -1.413
15.2010     -0.117    -1.434
15.4221     -0.117    -1.455
15.6464     -0.117    -1.477
15.8740     -0.117    -1.499
16.1049     -0.117    -1.521
16.3392     -0.117    -1.543
16.5768     -0.117    -1.566
16.8179     -0.117    -1.589
17.0626     -0.117    -1.612
17.3107     -0.117    -1.636
17.5625     -0.117    -1.660
17.8180     -0.117    -1.684
18.0771     -0.117    -1.709
18.3401     -0.117    -1.734
18.6068     -0.117    -1.760
18.8775     -0.117    -1.786
19.1521     -0.117    -1.812
19.4306     -0.117    -1.839
19.7133     -0.117    -1.866
20.0000     -0.117    -1.893
20.2909     -0.117    -1.921
20.5860     -0.117    -1.949
20.8855     -0.117    -1.978
21.1893     -0.117    -2.007
21.4975     -0.117    -2.037
21.8102     -0.117    -2.066
22.1274     -0.117    -2.097
22.4492     -0.117    -2.128
22.7758     -0.117    -2.159
23.1071     -0.117    -2.191
23.4432     -0.117    -2.223
23.7841     -0.117    -2.255
24.1301     -0.117    -2.289
24.4811     -0.117    -2.322
24.8372     -0.117    -2.356
25.1984     -0.117    -2.391
25.5649     -0.117    -2.426
25.9368     -0.116    -2.462
26.3141     -0.116    -2.498
26.6968     -0.116    -2.534
27.0851     -0.116    -2.572
27.4791     -0.116    -2.609
27.8788     -0.116    -2.648
28.2843     -0.116    -2.687
28.6957     -0.116    -2.726
29.1131     -0.116    -2.766
29.5365     -0.116    -2.807
29.9661     -0.116    -2.848
30.4020     -0.116    -2.890
30.8442     -0.116    -2.932
31.2929     -0.116    -2.975
31.7480     -0.116    -3.019
32.2098     -0.116    -3.063
32.6783     -0.116    -3.108
33.1536     -0.116    -3.153
33.6359     -0.116    -3.200
34.1251     -0.116    -3.247
34.6215     -0.115    -3.294
35.1250     -0.115    -3.343
35.6359     -0.115    -3.392
36.1543     -0.115    -3.441
36.6802     -0.115    -3.492
37.2137     -0.115    -3.543
37.7550     -0.115    -3.595
38.3041     -0.115    -3.648
38.8613     -0.115    -3.701
39.4265     -0.115    -3.756
40.0000     -0.115    -3.811
40.5818     -0.115    -3.867
41.1721     -0.115    -3.923
41.7710     -0.114    -3.981
42.3785     -0.114    -4.039
42.9949     -0.114    -4.099
43.6203     -0.114    -4.159
44.2548     -0.114    -4.220
44.8985     -0.114    -4.282
45.5515     -0.114    -4.345
46.2141     -0.114    -4.408
46.8863     -0.114    -4.473
47.5683     -0.114    -4.539
48.2602     -0.113    -4.605
48.9621     -0.113    -4.673
49.6743     -0.113    -4.742
50.3968     -0.113    -4.811
51.1299     -0.113    -4.882
51.8736     -0.113    -4.954
52.6281     -0.113    -5.026
53.3936     -0.113    -5.100
54.1702     -0.112    -5.175
54.9581     -0.112    -5.251
55.7575     -0.112    -5.328
56.5685     -0.112    -5.407
57.3914     -0.112    -5.486
58.2261     -0.112    -5.567
59.0730     -0.112    -5.649
59.9323     -0.111    -5.732
60.8040     -0.111    -5.816
61.6884     -0.111    -5.902
62.5857     -0.111    -5.989
63.4960     -0.111    -6.077
64.4196     -0.110    -6.166
65.3566     -0.110    -6.257
66.3073     -0.110    -6.349
67.2717     -0.110    -6.443
68.2502     -0.110    -6.538
69.2429     -0.110    -6.634
70.2501     -0.109    -6.732
71.2719     -0.109    -6.831
72.3086     -0.109    -6.932
73.3603     -0.109    -7.034
74.4274     -0.108    -7.138
75.5099     -0.108    -7.243
76.6083     -0.108    -7.350
77.7226     -0.108    -7.458
78.8531     -0.108    -7.568
80.0000     -0.107    -7.680
81.1636     -0.107    -7.794
82.3442     -0.107    -7.909
83.5419     -0.107    -8.026
84.7570     -0.106    -8.145
85.9899     -0.106    -8.265
87.2406     -0.106    -8.387
88.5096     -0.106    -8.512
89.7970     -0.105    -8.638
91.1031     -0.105    -8.766
92.4282     -0.105    -8.896
93.7726     -0.105    -9.027
95.1366     -0.104    -9.161
96.5204     -0.104    -9.297
97.9243     -0.104    -9.435
99.3486     -0.104    -9.575
100.794     -0.103    -9.717
102.260     -0.103    -9.862
103.747     -0.103   -10.008
105.256     -0.103   -10.157
106.787     -0.102   -10.308
108.340     -0.102   -10.462
109.916     -0.102   -10.617
111.515     -0.102   -10.776
113.137     -0.101   -10.936
114.783     -0.101   -11.099
116.452     -0.101   -11.264
118.146     -0.101   -11.433
119.865     -0.100   -11.603
121.608     -0.100   -11.777
123.377     -0.100   -11.953
125.171     -0.100   -12.131
126.992     -0.100   -12.312
128.839     -0.099   -12.497
130.713     -0.099   -12.684
132.615     -0.099   -12.874
134.543     -0.099   -13.066
136.500     -0.099   -13.262
138.486     -0.099   -13.461
140.500     -0.099   -13.663
142.544     -0.099   -13.868
144.617     -0.099   -14.076
146.721     -0.099   -14.287
148.855     -0.099   -14.502
151.020     -0.099   -14.720
153.217     -0.099   -14.941
155.445     -0.099   -15.166
157.706     -0.099   -15.394
160.000     -0.100   -15.626
162.327     -0.100   -15.861
164.688     -0.100   -16.100
167.084     -0.101   -16.342
169.514     -0.101   -16.588
171.980     -0.102   -16.838
174.481     -0.102   -17.092
177.019     -0.103   -17.350
179.594     -0.103   -17.612
182.206     -0.104   -17.877
184.856     -0.105   -18.147
187.545     -0.106   -18.421
190.273     -0.107   -18.699
193.041     -0.108   -18.981
195.849     -0.109   -19.267
198.697     -0.110   -19.558
201.587     -0.111   -19.853
204.520     -0.113   -20.153
207.494     -0.114   -20.457
210.512     -0.116   -20.765
213.574     -0.118   -21.078
216.681     -0.120   -21.396
219.833     -0.122   -21.719
223.030     -0.124   -22.046
226.274     -0.126   -22.378
229.565     -0.128   -22.715
232.905     -0.131   -23.056
236.292     -0.133   -23.403
239.729     -0.136   -23.755
243.216     -0.139   -24.111
246.754     -0.142   -24.473
250.343     -0.145   -24.840
253.984     -0.149   -25.213
257.678     -0.152   -25.590
261.426     -0.156   -25.973
265.229     -0.160   -26.361
269.087     -0.164   -26.754
273.001     -0.168   -27.153
276.972     -0.173   -27.558
281.000     -0.177   -27.968
285.088     -0.182   -28.383
289.234     -0.187   -28.804
293.441     -0.192   -29.231
297.709     -0.198   -29.664
302.040     -0.203   -30.102
306.433     -0.209   -30.547
310.890     -0.215   -30.997
315.412     -0.221   -31.453
320.000     -0.227   -31.915
324.655     -0.234   -32.384
329.377     -0.241   -32.858
334.168     -0.248   -33.339
339.028     -0.255   -33.826
343.959     -0.262   -34.320
348.962     -0.269   -34.820
354.038     -0.277   -35.327
359.188     -0.285   -35.841
364.412     -0.293   -36.362
369.713     -0.301   -36.889
375.090     -0.309   -37.424
380.546     -0.317   -37.966
386.081     -0.326   -38.515
391.697     -0.334   -39.073
397.394     -0.343   -39.637
403.175     -0.352   -40.210
409.039     -0.361   -40.791
414.989     -0.370   -41.381
421.025     -0.380   -41.979
427.149     -0.389   -42.586
433.362     -0.399   -43.202
439.665     -0.409   -43.827
446.060     -0.419   -44.461
452.548     -0.429   -45.106
459.131     -0.439   -45.761
465.809     -0.449   -46.426
472.584     -0.460   -47.102
479.458     -0.471   -47.789
486.432     -0.482   -48.487
493.507     -0.494   -49.196
500.686     -0.506   -49.918
507.968     -0.518   -50.651
515.357     -0.531   -51.396
522.853     -0.544   -52.153
530.458     -0.557   -52.924
538.174     -0.571   -53.708
546.002     -0.586   -54.504
553.943     -0.601   -55.314
562.001     -0.617   -56.137
570.175     -0.634   -56.973
578.469     -0.652   -57.823
586.883     -0.670   -58.686
595.419     -0.689   -59.562
604.080     -0.709   -60.452
612.866     -0.730   -61.355
621.780     -0.753   -62.271
630.824     -0.776   -63.201
640.000     -0.800   -64.143
649.309     -0.825   -65.098
658.753     -0.852   -66.065
668.335     -0.880   -67.045
678.056     -0.908   -68.038
687.919     -0.938   -69.042
697.925     -0.969   -70.059
708.077     -1.001   -71.087
718.376     -1.034   -72.127
728.825     -1.068   -73.179
739.426     -1.103   -74.244
750.181     -1.138   -75.321
761.093     -1.175   -76.410
772.163     -1.212   -77.513
783.394     -1.251   -78.629
794.789     -1.289   -79.761
806.349     -1.329   -80.906
818.078     -1.369   -82.068
829.977     -1.410   -83.247
842.050     -1.451   -84.444
854.298     -1.494   -85.660
866.724     -1.537   -86.895
879.330     -1.581   -88.151
892.120     -1.626   -89.429
905.097     -1.673   -90.730
918.262     -1.720   -92.055
931.618     -1.770   -93.403
945.169     -1.821   -94.775
958.917     -1.874   -96.172
972.864     -1.930   -97.593
987.015     -1.988   -99.039
1001.37     -2.049  -100.507
1015.94     -2.112  -101.998
1030.71     -2.178  -103.511
1045.71     -2.248  -105.045
1060.92     -2.320  -106.599
1076.35     -2.396  -108.171
1092.00     -2.475  -109.761
1107.89     -2.556  -111.367
1124.00     -2.641  -112.992
1140.35     -2.728  -114.633
1156.94     -2.817  -116.290
1173.77     -2.909  -117.966
1190.84     -3.003  -119.660
1208.16     -3.100  -121.377
1225.73     -3.198  -123.116
1243.56     -3.299  -124.881
1261.65     -3.402  -126.673
1280.00     -3.507  -128.497
1298.62     -3.616  -130.354
1317.51     -3.728  -132.246
1336.67     -3.844  -134.173
1356.11     -3.964  -136.137
1375.84     -4.090  -138.137
1395.85     -4.221  -140.172
1416.15     -4.358  -142.240
1436.75     -4.502  -144.338
1457.65     -4.653  -146.464
1478.85     -4.810  -148.616
1500.36     -4.974  -150.790
1522.19     -5.145  -152.985
1544.33     -5.322  -155.200
1566.79     -5.505  -157.437
1589.58     -5.694  -159.698
1612.70     -5.889  -161.985
1636.16     -6.090  -164.302
1659.95     -6.296  -166.656
1684.10     -6.510  -169.052
1708.60     -6.731  -171.492
1733.45     -6.962  -173.980
1758.66     -7.202  -176.517
1784.24     -7.455  -179.103
1810.19     -7.720   178.266
1836.52     -8.000   175.595
1863.24     -8.294   172.890
1890.34     -8.604   170.156
1917.83     -8.930   167.396
1945.73     -9.271   164.615
1974.03     -9.628   161.811
2002.74    -10.002   158.982
2031.87    -10.392   156.118
2061.43    -10.800   153.212
2091.41    -11.228   150.255
2121.83    -11.680   147.242
2152.69    -12.159   144.165
2184.01    -12.669   141.025
2215.77    -13.215   137.829
2248.00    -13.801   134.584
2280.70    -14.434   131.301
2313.87    -15.117   127.990
2347.53    -15.857   124.661
2381.68    -16.661   121.316
2416.32    -17.538   117.954
2451.46    -18.502   114.566
2487.12    -19.573   111.147
2523.30    -20.779   107.691
2560.00    -22.161   104.204
2597.24    -23.785   100.705
2635.01    -25.754    97.245
2673.34    -28.257    93.933
2712.23    -31.703    91.021
2751.68    -37.313    89.226
2791.70    -56.013   160.822
2832.31    -39.944  -120.414
2873.50    -33.412  -114.410
2915.30    -29.834  -116.406
2957.70    -27.395  -119.693
3000.72    -25.568  -123.445
3044.37    -24.121  -127.439
3088.65    -22.937  -131.605
3133.58    -21.947  -135.923
3179.16    -21.108  -140.384
3225.40    -20.395  -144.979
3272.31    -19.792  -149.687
3319.91    -19.283  -154.472
3368.20    -18.856  -159.306
3417.19    -18.498  -164.174
3466.89    -18.199  -169.082
3517.32    -17.950  -174.055
3568.48    -17.749  -179.125
3620.39    -17.596   175.681
3673.05    -17.494   170.362
3726.47    -17.445   164.939
3780.67    -17.451   159.443
3835.67    -17.506   153.889
3891.46    -17.608   148.279
3948.06    -17.755   142.585
4005.49    -17.951   136.777
4063.75    -18.202   130.839
4122.86    -18.516   124.792
4182.82    -18.897   118.672
4243.66    -19.345   112.495
4305.39    -19.861   106.246
4368.01    -20.450    99.868
4431.55    -21.127    93.297
4496.01    -21.917    86.506
4561.40    -22.850    79.522
4627.75    -23.953    72.385
4695.06    -25.257    65.075
4763.35    -26.817    57.455
4832.64    -28.741    49.242
4902.93    -31.242    39.889
4974.24    -34.789    27.900
5046.60    -40.826     4.473
5120.00    -76.131   116.116
5194.47    -41.430  -131.131
5270.03    -35.507  -153.871
5346.68    -32.165  -166.149
5424.45    -29.883  -176.159
5503.35    -28.199   174.586
5583.40    -26.919   165.631
5664.61    -25.938   156.867
5747.01    -25.181   148.250
5830.60    -24.597   139.680
5915.41    -24.161   131.032
6001.45    -23.871   122.266
6088.74    -23.719   113.430
6177.30    -23.694   104.530
6267.15    -23.796    95.502
6358.31    -24.039    86.343
6450.80    -24.435    77.157
6544.62    -24.981    68.006
6639.82    -25.682    58.798
6736.40    -26.582    49.442
6834.38    -27.748    40.059
6933.79    -29.242    30.880
7034.64    -31.167    22.034
7136.96    -33.774    13.809
7240.77    -37.680     7.862
7346.09    -45.073    17.827
7452.94    -54.946    80.837
7561.35    -41.043   130.715
7671.33    -36.154   125.521
7782.91    -33.251   116.684
7896.12    -31.308   106.620
8010.97    -29.945    96.079
8127.49    -28.971    85.169
8245.71    -28.316    73.845
8365.65    -27.954    62.277
8487.33    -27.846    50.622
8610.78    -27.971    38.806
8736.03    -28.352    26.788
8863.09    -29.019    14.720
8992.01    -30.005     2.675
9122.80    -31.400    -9.281
9255.50    -33.355   -20.733
9390.12    -36.152   -31.013
9526.70    -40.644   -37.668
9665.27    -51.058    -7.851
9805.86    -48.953    46.659
9948.49    -40.347    67.048
10093.2    -36.385    59.197
10240.0    -34.010    47.257
10388.9    -32.494    34.102
10540.1    -31.528    20.118
10693.4    -31.047     5.487
10848.9    -30.987    -9.350
11006.7    -31.317   -24.444
11166.8    -32.067   -39.750
11329.2    -33.325   -55.401
11494.0    -35.302   -71.135
11661.2    -38.356   -86.780
11830.8    -43.778  -102.284
12002.9    -63.314   -40.628
12177.5    -46.081    26.858
12354.6    -39.850    17.788
12534.3    -36.699     1.957
12716.6    -34.838   -15.077
12901.6    -33.826   -32.868
13089.2    -33.481   -50.775
13279.6    -33.700   -68.838
13472.8    -34.537   -87.070
13668.8    -36.140  -105.278
13867.6    -38.895  -122.782
14069.3    -43.829  -137.336
14273.9    -58.705   -93.976
14481.5    -47.894   -39.000
14692.2    -41.157   -41.207
14905.9    -37.992   -57.996
15122.7    -36.310   -77.232
15342.7    -35.668   -97.293
15565.8    -35.782  -117.473
15792.2    -36.767  -137.785
16021.9    -38.835  -157.397
16255.0    -42.738  -173.314
16491.4    -51.931  -158.645
16731.3    -52.607  -114.025
16974.7    -43.306   -97.505
17221.6    -39.644  -114.358
17472.1    -37.871  -135.709
17726.2    -37.353  -158.112
17984.0    -37.955   178.854
18245.6    -39.802   156.686
18511.0    -43.608   138.139
18780.2    -53.215   152.623
19053.4    -52.460  -165.738
19330.5    -43.788  -155.612
19611.7    -40.425  -175.836
19897.0    -39.099   159.985
20186.4    -39.197   134.513
20480.0    -40.780   109.281
20777.9    -44.620    87.621
21080.1    -55.110   104.565
21386.7    -51.942   143.712
21697.8    -44.093   145.830
22013.4    -41.168   121.670
22333.6    -40.379    94.153
22658.4    -41.385    66.031
22988.0    -44.624    41.058
23322.4    -53.426    45.877
23661.6    -54.208    80.498
24005.8    -45.179    86.552
24355.0    -42.216    58.067
24709.2    -41.768    24.683
25068.6    -43.485   -12.006
25433.2    -48.622   -56.130
25803.2    -78.729    18.271
26178.5    -48.390    90.648
26559.3    -43.867    42.656
26945.6    -42.832     2.583
27337.5    -44.364   -35.134
27735.2    -49.887   -65.378
28138.6    -66.253   -22.310
28547.9    -48.152    14.266
28963.1    -44.386   -23.978
29384.4    -44.148   -62.210
29811.8    -47.207   -97.327
30245.4    -59.061   -85.769
30685.3    -52.354   -57.237
31131.7    -46.023   -75.270
31584.5    -44.888  -112.574
32043.9    -47.452  -149.463
32510.0    -58.352  -144.009
32982.8    -53.217  -120.805
33462.6    -46.764  -140.495
33949.3    -45.964   175.450
34443.1    -49.642   122.900
34944.1    -76.052   174.202
35452.4    -50.667  -132.179
35968.0    -46.785   176.060
36491.2    -47.975   129.484
37022.0    -56.815   118.978
37560.5    -55.162   133.471
38106.8    -48.127   114.986
38661.1    -48.080    69.594
39223.4    -54.911    44.166
39793.9    -57.757    42.659
