Freq[Hz]     dBSPL  Phase[Deg]
5.00000     -0.750    -0.782
5.07273     -0.750    -0.794
5.14651     -0.750    -0.805
5.22137     -0.750    -0.817
5.29732     -0.750    -0.829
5.37437     -0.750    -0.841
5.45254     -0.750    -0.853
5.53185     -0.750    -0.865
5.61231     -0.750    -0.878
5.69394     -0.750    -0.891
5.77676     -0.750    -0.904
5.86079     -0.750    -0.917
5.94604     -0.750    -0.930
6.03252     -0.750    -0.943
6.12027     -0.750    -0.957
6.20929     -0.750    -0.971
6.29961     -0.750    -0.985
6.39124     -0.750    -0.999
6.48420     -0.750    -1.014
6.57851     -0.750    -1.029
6.67420     -0.750    -1.044
6.77128     -0.750    -1.059
6.86977     -0.750    -1.074
6.96969     -0.750    -1.090
7.07107     -0.750    -1.106
7.17392     -0.750    -1.122
7.27827     -0.750    -1.138
7.38413     -0.750    -1.154
7.49154     -0.750    -1.171
7.60050     -0.750    -1.188
7.71105     -0.750    -1.205
7.82321     -0.750    -1.223
7.93701     -0.750    -1.241
8.05245     -0.751    -1.259
8.16958     -0.751    -1.277
8.28841     -0.751    -1.296
8.40896     -0.751    -1.314
8.53128     -0.751    -1.334
8.65537     -0.751    -1.353
8.78126     -0.751    -1.373
8.90899     -0.751    -1.392
9.03857     -0.751    -1.413
9.17004     -0.751    -1.433
9.30342     -0.751    -1.454
9.43874     -0.751    -1.475
9.57603     -0.751    -1.497
9.71532     -0.751    -1.518
9.85663     -0.751    -1.540
10.0000     -0.751    -1.563
10.1455     -0.751    -1.585
10.2930     -0.751    -1.608
10.4427     -0.752    -1.632
10.5946     -0.752    -1.656
10.7487     -0.752    -1.680
10.9051     -0.752    -1.704
11.0637     -0.752    -1.729
11.2246     -0.752    -1.754
11.3879     -0.752    -1.779
11.5535     -0.752    -1.805
11.7216     -0.752    -1.831
11.8921     -0.752    -1.858
12.0650     -0.752    -1.885
12.2405     -0.752    -1.912
12.4186     -0.753    -1.940
12.5992     -0.753    -1.968
12.7825     -0.753    -1.997
12.9684     -0.753    -2.026
13.1570     -0.753    -2.055
13.3484     -0.753    -2.085
13.5426     -0.753    -2.115
13.7395     -0.753    -2.146
13.9394     -0.753    -2.177
14.1421     -0.754    -2.209
14.3478     -0.754    -2.241
14.5565     -0.754    -2.274
14.7683     -0.754    -2.307
14.9831     -0.754    -2.340
15.2010     -0.754    -2.374
15.4221     -0.754    -2.409
15.6464     -0.755    -2.444
15.8740     -0.755    -2.480
16.1049     -0.755    -2.516
16.3392     -0.755    -2.553
16.5768     -0.755    -2.590
16.8179     -0.755    -2.628
17.0626     -0.756    -2.667
17.3107     -0.756    -2.705
17.5625     -0.756    -2.745
17.8180     -0.756    -2.785
18.0771     -0.756    -2.826
18.3401     -0.757    -2.867
18.6068     -0.757    -2.909
18.8775     -0.757    -2.951
19.1521     -0.757    -2.994
19.4306     -0.758    -3.038
19.7133     -0.758    -3.083
20.0000     -0.758    -3.128
20.2909     -0.758    -3.173
20.5860     -0.759    -3.219
20.8855     -0.759    -3.266
21.1893     -0.759    -3.314
21.4975     -0.759    -3.362
21.8102     -0.760    -3.411
22.1274     -0.760    -3.461
22.4492     -0.760    -3.512
22.7758     -0.761    -3.563
23.1071     -0.761    -3.615
23.4432     -0.761    -3.667
23.7841     -0.762    -3.721
24.1301     -0.762    -3.775
24.4811     -0.762    -3.830
24.8372     -0.763    -3.886
25.1984     -0.763    -3.943
25.5649     -0.764    -4.000
25.9368     -0.764    -4.058
26.3141     -0.765    -4.117
26.6968     -0.765    -4.177
27.0851     -0.765    -4.238
27.4791     -0.766    -4.300
27.8788     -0.766    -4.362
28.2843     -0.767    -4.426
28.6957     -0.767    -4.490
29.1131     -0.768    -4.556
29.5365     -0.769    -4.622
29.9661     -0.769    -4.689
30.4020     -0.770    -4.757
30.8442     -0.770    -4.826
31.2929     -0.771    -4.897
31.7480     -0.772    -4.968
32.2098     -0.772    -5.040
32.6783     -0.773    -5.113
33.1536     -0.774    -5.187
33.6359     -0.774    -5.263
34.1251     -0.775    -5.339
34.6215     -0.776    -5.417
35.1250     -0.777    -5.496
35.6359     -0.777    -5.575
36.1543     -0.778    -5.656
36.6802     -0.779    -5.738
37.2137     -0.780    -5.822
37.7550     -0.781    -5.906
38.3041     -0.782    -5.992
38.8613     -0.783    -6.079
39.4265     -0.784    -6.167
40.0000     -0.785    -6.256
40.5818     -0.786    -6.347
41.1721     -0.787    -6.439
41.7710     -0.788    -6.532
42.3785     -0.789    -6.627
42.9949     -0.790    -6.723
43.6203     -0.791    -6.820
44.2548     -0.793    -6.919
44.8985     -0.794    -7.019
45.5515     -0.795    -7.120
46.2141     -0.797    -7.223
46.8863     -0.798    -7.328
47.5683     -0.799    -7.434
48.2602     -0.801    -7.541
48.9621     -0.802    -7.650
49.6743     -0.804    -7.761
50.3968     -0.806    -7.873
51.1299     -0.807    -7.986
51.8736     -0.809    -8.102
52.6281     -0.811    -8.219
53.3936     -0.812    -8.337
54.1702     -0.814    -8.457
54.9581     -0.816    -8.579
55.7575     -0.818    -8.703
56.5685     -0.820    -8.828
57.3914     -0.822    -8.955
58.2261     -0.824    -9.084
59.0730     -0.826    -9.215
59.9323     -0.829    -9.348
60.8040     -0.831    -9.482
61.6884     -0.833    -9.618
62.5857     -0.836    -9.756
63.4960     -0.838    -9.896
64.4196     -0.841   -10.039
65.3566     -0.844   -10.183
66.3073     -0.846   -10.329
67.2717     -0.849   -10.477
68.2502     -0.852   -10.627
69.2429     -0.855   -10.779
70.2501     -0.858   -10.933
71.2719     -0.861   -11.089
72.3086     -0.864   -11.248
73.3603     -0.868   -11.409
74.4274     -0.871   -11.572
75.5099     -0.875   -11.737
76.6083     -0.878   -11.904
77.7226     -0.882   -12.074
78.8531     -0.886   -12.246
80.0000     -0.890   -12.420
81.1636     -0.894   -12.597
82.3442     -0.898   -12.776
83.5419     -0.902   -12.957
84.7570     -0.907   -13.141
85.9899     -0.911   -13.327
87.2406     -0.916   -13.516
88.5096     -0.920   -13.708
89.7970     -0.925   -13.902
91.1031     -0.930   -14.098
92.4282     -0.936   -14.297
93.7726     -0.941   -14.499
95.1366     -0.946   -14.703
96.5204     -0.952   -14.910
97.9243     -0.958   -15.120
99.3486     -0.964   -15.333
100.794     -0.970   -15.548
102.260     -0.976   -15.766
103.747     -0.983   -15.987
105.256     -0.989   -16.210
106.787     -0.996   -16.437
108.340     -1.003   -16.666
109.916     -1.010   -16.899
111.515     -1.017   -17.134
113.137     -1.025   -17.372
114.783     -1.033   -17.613
116.452     -1.041   -17.858
118.146     -1.049   -18.105
119.865     -1.057   -18.355
121.608     -1.066   -18.609
123.377     -1.075   -18.865
125.171     -1.084   -19.125
126.992     -1.093   -19.387
128.839     -1.103   -19.653
130.713     -1.113   -19.922
132.615     -1.123   -20.194
134.543     -1.133   -20.470
136.500     -1.144   -20.749
138.486     -1.155   -21.030
140.500     -1.166   -21.315
142.544     -1.177   -21.604
144.617     -1.189   -21.895
146.721     -1.201   -22.190
148.855     -1.213   -22.489
151.020     -1.226   -22.790
153.217     -1.239   -23.095
155.445     -1.252   -23.403
157.706     -1.266   -23.714
160.000     -1.280   -24.029
162.327     -1.294   -24.347
164.688     -1.309   -24.668
167.084     -1.324   -24.993
169.514     -1.339   -25.321
171.980     -1.355   -25.652
174.481     -1.371   -25.987
177.019     -1.387   -26.325
179.594     -1.404   -26.666
182.206     -1.421   -27.010
184.856     -1.439   -27.357
187.545     -1.457   -27.708
190.273     -1.475   -28.062
193.041     -1.494   -28.419
195.849     -1.513   -28.780
198.697     -1.532   -29.143
201.587     -1.552   -29.509
204.520     -1.572   -29.879
207.494     -1.593   -30.251
210.512     -1.614   -30.627
213.574     -1.636   -31.006
216.681     -1.658   -31.387
219.833     -1.680   -31.771
223.030     -1.703   -32.158
226.274     -1.726   -32.548
229.565     -1.750   -32.941
232.905     -1.774   -33.336
236.292     -1.798   -33.734
239.729     -1.823   -34.135
243.216     -1.848   -34.538
246.754     -1.873   -34.944
250.343     -1.899   -35.352
253.984     -1.925   -35.762
257.678     -1.952   -36.175
261.426     -1.979   -36.590
265.229     -2.006   -37.008
269.087     -2.034   -37.427
273.001     -2.061   -37.849
276.972     -2.089   -38.274
281.000     -2.118   -38.700
285.088     -2.146   -39.128
289.234     -2.175   -39.558
293.441     -2.204   -39.990
297.709     -2.233   -40.425
302.040     -2.262   -40.861
306.433     -2.292   -41.300
310.890     -2.321   -41.741
315.412     -2.350   -42.183
320.000     -2.380   -42.628
324.655     -2.409   -43.075
329.377     -2.439   -43.525
334.168     -2.468   -43.977
339.028     -2.497   -44.431
343.959     -2.526   -44.888
348.962     -2.555   -45.347
354.038     -2.583   -45.810
359.188     -2.611   -46.276
364.412     -2.639   -46.745
369.713     -2.666   -47.218
375.090     -2.693   -47.695
380.546     -2.720   -48.175
386.081     -2.746   -48.661
391.697     -2.771   -49.151
397.394     -2.796   -49.647
403.175     -2.820   -50.148
409.039     -2.843   -50.655
414.989     -2.866   -51.168
421.025     -2.888   -51.689
427.149     -2.909   -52.218
433.362     -2.930   -52.754
439.665     -2.950   -53.298
446.060     -2.969   -53.852
452.548     -2.987   -54.417
459.131     -3.004   -54.991
465.809     -3.020   -55.577
472.584     -3.036   -56.174
479.458     -3.050   -56.783
486.432     -3.064   -57.406
493.507     -3.078   -58.043
500.686     -3.090   -58.694
507.968     -3.102   -59.360
515.357     -3.113   -60.041
522.853     -3.123   -60.739
530.458     -3.133   -61.455
538.174     -3.143   -62.188
546.002     -3.152   -62.939
553.943     -3.160   -63.709
562.001     -3.168   -64.498
570.175     -3.177   -65.307
578.469     -3.184   -66.137
586.883     -3.192   -66.988
595.419     -3.200   -67.860
604.080     -3.208   -68.753
612.866     -3.217   -69.668
621.780     -3.225   -70.606
630.824     -3.234   -71.567
640.000     -3.244   -72.550
649.309     -3.254   -73.557
658.753     -3.265   -74.586
668.335     -3.276   -75.640
678.056     -3.289   -76.717
687.919     -3.302   -77.818
697.925     -3.316   -78.943
708.077     -3.332   -80.092
718.376     -3.348   -81.266
728.825     -3.366   -82.465
739.426     -3.385   -83.688
750.181     -3.405   -84.936
761.093     -3.427   -86.209
772.163     -3.450   -87.507
783.394     -3.475   -88.832
794.789     -3.501   -90.183
806.349     -3.529   -91.560
818.078     -3.559   -92.964
829.977     -3.591   -94.395
842.050     -3.624   -95.854
854.298     -3.660   -97.341
866.724     -3.698   -98.857
879.330     -3.738  -100.401
892.120     -3.781  -101.975
905.097     -3.826  -103.579
918.262     -3.874  -105.213
931.618     -3.925  -106.877
945.169     -3.980  -108.571
958.917     -4.037  -110.296
972.864     -4.099  -112.052
987.015     -4.164  -113.838
1001.37     -4.233  -115.653
1015.94     -4.306  -117.498
1030.71     -4.384  -119.371
1045.71     -4.467  -121.272
1060.92     -4.555  -123.199
1076.35     -4.648  -125.151
1092.00     -4.746  -127.126
1107.89     -4.849  -129.123
1124.00     -4.958  -131.140
1140.35     -5.072  -133.175
1156.94     -5.192  -135.226
1173.77     -5.317  -137.291
1190.84     -5.448  -139.368
1208.16     -5.583  -141.456
1225.73     -5.724  -143.553
1243.56     -5.869  -145.658
1261.65     -6.018  -147.770
1280.00     -6.171  -149.889
1298.62     -6.327  -152.016
1317.51     -6.487  -154.151
1336.67     -6.649  -156.296
1356.11     -6.813  -158.452
1375.84     -6.980  -160.625
1395.85     -7.148  -162.815
1416.15     -7.318  -165.028
1436.75     -7.490  -167.266
1457.65     -7.663  -169.534
1478.85     -7.838  -171.838
1500.36     -8.016  -174.179
1522.19     -8.197  -176.562
1544.33     -8.381  -178.990
1566.79     -8.568   178.535
1589.58     -8.760   176.009
1612.70     -8.958   173.433
1636.16     -9.160   170.805
1659.95     -9.369   168.125
1684.10     -9.585   165.390
1708.60     -9.808   162.601
1733.45    -10.039   159.757
1758.66    -10.277   156.857
1784.24    -10.525   153.898
1810.19    -10.781   150.878
1836.52    -11.048   147.795
1863.24    -11.326   144.645
1890.34    -11.615   141.425
1917.83    -11.917   138.129
1945.73    -12.234   134.756
1974.03    -12.567   131.303
2002.74    -12.918   127.769
2031.87    -13.289   124.150
2061.43    -13.684   120.447
2091.41    -14.103   116.662
2121.83    -14.550   112.797
2152.69    -15.029   108.853
2184.01    -15.542   104.833
2215.77    -16.093   100.743
2248.00    -16.687    96.585
2280.70    -17.330    92.365
2313.87    -18.026    88.087
2347.53    -18.783    83.760
2381.68    -19.612    79.393
2416.32    -20.522    74.997
2451.46    -21.530    70.583
2487.12    -22.654    66.173
2523.30    -23.922    61.787
2560.00    -25.372    57.453
2597.24    -27.063    53.203
2635.01    -29.095    49.095
2673.34    -31.652    45.231
2712.23    -35.140    41.861
2751.68    -40.775    39.729
2791.70    -58.992   114.733
2832.31    -42.244  -169.943
2873.50    -35.702  -165.484
2915.30    -32.145  -168.515
2957.70    -29.739  -172.742
3000.72    -27.953  -177.384
3044.37    -26.560   177.781
3088.65    -25.437   172.837
3133.58    -24.515   167.827
3179.16    -23.746   162.771
3225.40    -23.100   157.684
3272.31    -22.553   152.575
3319.91    -22.086   147.449
3368.20    -21.682   142.300
3417.19    -21.327   137.096
3466.89    -21.012   131.787
3517.32    -20.731   126.310
3568.48    -20.483   120.592
3620.39    -20.277   114.578
3673.05    -20.124   108.244
3726.47    -20.034   101.611
3780.67    -20.020    94.738
3835.67    -20.087    87.709
3891.46    -20.233    80.621
3948.06    -20.450    73.551
4005.49    -20.727    66.532
4063.75    -21.053    59.539
4122.86    -21.422    52.507
4182.82    -21.837    45.352
4243.66    -22.310    38.008
4305.39    -22.860    30.467
4368.01    -23.502    22.771
4431.55    -24.247    14.986
4496.01    -25.101     7.152
4561.40    -26.069    -0.749
4627.75    -27.167    -8.825
4695.06    -28.434   -17.251
4763.35    -29.946   -26.232
4832.64    -31.828   -36.011
4902.93    -34.297   -47.050
4974.24    -37.814   -60.822
5046.60    -43.802   -86.249
5120.00    -79.052    25.265
5194.47    -44.077   136.354
5270.03    -38.120   113.051
5346.68    -34.728    99.804
5424.45    -32.402    88.564
5503.35    -30.689    77.908
5583.40    -29.400    67.458
5664.61    -28.425    57.142
5747.01    -27.689    46.931
5830.60    -27.138    36.737
5915.41    -26.748    26.424
6001.45    -26.523    15.948
6088.74    -26.469     5.463
6177.30    -26.563    -4.787
6267.15    -26.750   -14.735
6358.31    -26.979   -24.698
6450.80    -27.266   -35.228
6544.62    -27.704   -46.619
6639.82    -28.397   -58.602
6736.40    -29.395   -70.556
6834.38    -30.685   -82.000
6933.79    -32.258   -92.936
7034.64    -34.218  -103.639
7136.96    -36.864  -113.865
7240.77    -40.822  -121.640
7346.09    -48.210  -112.702
7452.94    -57.713   -50.732
7561.35    -43.676    -4.139
7671.33    -38.837   -10.907
7782.91    -35.911   -21.227
7896.12    -33.926   -33.362
8010.97    -32.622   -46.333
8127.49    -31.803   -59.043
8245.71    -31.222   -71.218
8365.65    -30.739   -83.844
8487.33    -30.438   -97.909
8610.78    -30.491  -113.209
8736.03    -30.974  -128.750
8863.09    -31.841  -143.617
8992.01    -32.998  -157.516
9122.80    -34.412  -170.933
9255.50    -36.250   175.445
9390.12    -38.952   162.002
9526.70    -43.445   151.944
9665.27    -53.965   178.643
9805.86    -51.963  -127.945
9948.49    -43.177  -108.937
10093.2    -39.094  -119.256
10240.0    -36.663  -134.114
10388.9    -35.165  -150.384
10540.1    -34.278  -167.406
10693.4    -33.918   175.106
10848.9    -33.991   157.897
11006.7    -34.350   140.683
11166.8    -35.079   122.673
11329.2    -36.314   104.333
11494.0    -38.135    85.251
11661.2    -41.172    64.585
11830.8    -46.908    44.945
12002.9    -66.166   107.678
12177.5    -48.547   167.681
12354.6    -42.567   155.252
12534.3    -39.567   136.879
12716.6    -37.791   117.934
12901.6    -36.614    97.520
13089.2    -36.242    74.891
13279.6    -36.686    53.050
13472.8    -37.596    31.789
13668.8    -39.263     9.847
13867.6    -42.093   -11.108
14069.3    -47.084   -29.101
14273.9    -61.651    13.032
14481.5    -50.499    62.911
14692.2    -43.705    56.867
14905.9    -40.543    35.385
15122.7    -39.128    12.045
15342.7    -38.616   -10.655
15565.8    -38.704   -34.146
15792.2    -39.699   -58.595
16021.9    -41.708   -81.770
16255.0    -45.508  -103.548
16491.4    -54.910   -92.808
16731.3    -55.148   -52.401
16974.7    -45.872   -43.033
17221.6    -42.625   -65.123
17472.1    -41.015   -87.651
17726.2    -40.169  -114.883
17984.0    -40.955  -144.425
18245.6    -43.029  -169.203
18511.0    -46.486   166.702
18780.2    -56.377   176.565
19053.4    -55.426  -145.275
19330.5    -46.511  -139.423
19611.7    -43.278  -164.660
19897.0    -41.778   165.634
20186.4    -42.187   134.287
20480.0    -43.775   104.876
20777.9    -47.434    77.535
21080.1    -58.005    86.809
21386.7    -54.848   122.351
21697.8    -46.741   119.826
22013.4    -43.791    88.755
22333.6    -43.094    57.430
22658.4    -43.796    21.222
22988.0    -47.304   -10.690
23322.4    -56.345   -10.706
23661.6    -56.959    14.388
24005.8    -48.213    17.631
24355.0    -44.959   -18.814
24709.2    -45.098   -58.363
25068.6    -46.155  -100.098
25433.2    -51.545  -154.829
25803.2    -81.626   -82.955
26178.5    -51.109   -16.647
26559.3    -46.646   -70.191
26945.6    -45.629  -119.723
27337.5    -47.486  -164.894
27735.2    -53.022   159.757
28138.6    -69.186  -165.146
28547.9    -50.857  -136.053
28963.1    -47.248   177.939
29384.4    -47.319   134.065
29811.8    -50.270    91.229
30245.4    -61.594    96.672
30685.3    -55.069   114.089
31131.7    -48.597    87.715
31584.5    -47.721    41.197
32043.9    -49.978    -3.324
32510.0    -61.444    -4.588
32982.8    -56.134     7.159
33462.6    -49.479   -18.957
33949.3    -48.908   -73.788
34443.1    -52.658  -133.785
34944.1    -78.864   -92.257
35452.4    -53.630   -46.322
35968.0    -49.663  -106.818
36491.2    -50.667  -163.974
37022.0    -59.815   175.445
37560.5    -58.264  -178.483
38106.8    -51.094   154.055
38661.1    -51.018    97.018
39223.4    -57.743    59.743
39793.9    -61.270    51.337
