Freq[Hz]     dBSPL  Phase[Deg]
5.00000      0.993     0.062
5.07273      0.993     0.063
5.14651      0.993     0.064
5.22137      0.993     0.065
5.29732      0.993     0.066
5.37437      0.993     0.067
5.45254      0.993     0.068
5.53185      0.993     0.069
5.61231      0.993     0.070
5.69394      0.993     0.071
5.77676      0.993     0.072
5.86079      0.993     0.073
5.94604      0.993     0.074
6.03252      0.993     0.075
6.12027      0.993     0.076
6.20929      0.993     0.078
6.29961      0.993     0.079
6.39124      0.993     0.080
6.48420      0.994     0.081
6.57851      0.994     0.082
6.67420      0.994     0.084
6.77128      0.994     0.085
6.86977      0.994     0.086
6.96969      0.994     0.087
7.07107      0.994     0.089
7.17392      0.994     0.090
7.27827      0.994     0.091
7.38413      0.994     0.093
7.49154      0.994     0.094
7.60050      0.994     0.096
7.71105      0.994     0.097
7.82321      0.994     0.098
7.93701      0.994     0.100
8.05245      0.995     0.101
8.16958      0.995     0.103
8.28841      0.995     0.104
8.40896      0.995     0.106
8.53128      0.995     0.107
8.65537      0.995     0.109
8.78126      0.995     0.111
8.90899      0.995     0.112
9.03857      0.995     0.114
9.17004      0.995     0.116
9.30342      0.995     0.117
9.43874      0.996     0.119
9.57603      0.996     0.121
9.71532      0.996     0.123
9.85663      0.996     0.124
10.0000      0.996     0.126
10.1455      0.996     0.128
10.2930      0.996     0.130
10.4427      0.996     0.132
10.5946      0.997     0.134
10.7487      0.997     0.136
10.9051      0.997     0.138
11.0637      0.997     0.140
11.2246      0.997     0.142
11.3879      0.997     0.144
11.5535      0.998     0.146
11.7216      0.998     0.148
11.8921      0.998     0.150
12.0650      0.998     0.152
12.2405      0.998     0.155
12.4186      0.998     0.157
12.5992      0.999     0.159
12.7825      0.999     0.161
12.9684      0.999     0.164
13.1570      0.999     0.166
13.3484      1.000     0.168
13.5426      1.000     0.171
13.7395      1.000     0.173
13.9394      1.000     0.176
14.1421      1.000     0.178
14.3478      1.001     0.181
14.5565      1.001     0.184
14.7683      1.001     0.186
14.9831      1.002     0.189
15.2010      1.002     0.191
15.4221      1.002     0.193
15.6464      1.002     0.196
15.8740      1.003     0.198
16.1049      1.003     0.200
16.3392      1.003     0.203
16.5768      1.004     0.205
16.8179      1.004     0.208
17.0626      1.004     0.210
17.3107      1.005     0.213
17.5625      1.005     0.215
17.8180      1.006     0.218
18.0771      1.006     0.221
18.3401      1.006     0.223
18.6068      1.007     0.226
18.8775      1.007     0.229
19.1521      1.008     0.231
19.4306      1.008     0.234
19.7133      1.009     0.237
20.0000      1.009     0.240
20.2909      1.010     0.243
20.5860      1.010     0.246
20.8855      1.011     0.249
21.1893      1.011     0.252
21.4975      1.012     0.255
21.8102      1.012     0.258
22.1274      1.013     0.261
22.4492      1.014     0.264
22.7758      1.014     0.267
23.1071      1.015     0.270
23.4432      1.016     0.273
23.7841      1.016     0.276
24.1301      1.017     0.280
24.4811      1.018     0.283
24.8372      1.019     0.286
25.1984      1.019     0.290
25.5649      1.020     0.293
25.9368      1.021     0.296
26.3141      1.022     0.300
26.6968      1.023     0.303
27.0851      1.024     0.307
27.4791      1.025     0.310
27.8788      1.026     0.314
28.2843      1.026     0.317
28.6957      1.028     0.321
29.1131      1.029     0.324
29.5365      1.030     0.328
29.9661      1.031     0.332
30.4020      1.032     0.335
30.8442      1.033     0.339
31.2929      1.034     0.343
31.7480      1.035     0.347
32.2098      1.037     0.350
32.6783      1.038     0.354
33.1536      1.039     0.358
33.6359      1.041     0.362
34.1251      1.042     0.365
34.6215      1.044     0.369
35.1250      1.045     0.373
35.6359      1.047     0.377
36.1543      1.048     0.381
36.6802      1.050     0.384
37.2137      1.052     0.388
37.7550      1.053     0.392
38.3041      1.055     0.396
38.8613      1.057     0.400
39.4265      1.059     0.403
40.0000      1.061     0.407
40.5818      1.063     0.411
41.1721      1.065     0.415
41.7710      1.067     0.418
42.3785      1.069     0.422
42.9949      1.071     0.426
43.6203      1.073     0.429
44.2548      1.076     0.433
44.8985      1.078     0.436
45.5515      1.081     0.440
46.2141      1.083     0.443
46.8863      1.086     0.446
47.5683      1.089     0.450
48.2602      1.091     0.453
48.9621      1.094     0.456
49.6743      1.097     0.459
50.3968      1.100     0.462
51.1299      1.103     0.465
51.8736      1.106     0.467
52.6281      1.110     0.470
53.3936      1.113     0.472
54.1702      1.116     0.474
54.9581      1.120     0.477
55.7575      1.124     0.479
56.5685      1.127     0.481
57.3914      1.131     0.482
58.2261      1.135     0.484
59.0730      1.139     0.485
59.9323      1.143     0.486
60.8040      1.148     0.487
61.6884      1.152     0.487
62.5857      1.156     0.488
63.4960      1.161     0.488
64.4196      1.166     0.488
65.3566      1.171     0.487
66.3073      1.176     0.486
67.2717      1.181     0.485
68.2502      1.186     0.484
69.2429      1.192     0.482
70.2501      1.197     0.480
71.2719      1.203     0.478
72.3086      1.209     0.474
73.3603      1.215     0.471
74.4274      1.221     0.467
75.5099      1.227     0.463
76.6083      1.234     0.458
77.7226      1.240     0.453
78.8531      1.247     0.447
80.0000      1.254     0.440
81.1636      1.261     0.433
82.3442      1.269     0.425
83.5419      1.276     0.416
84.7570      1.284     0.407
85.9899      1.292     0.397
87.2406      1.300     0.387
88.5096      1.308     0.375
89.7970      1.317     0.363
91.1031      1.326     0.350
92.4282      1.335     0.335
93.7726      1.344     0.320
95.1366      1.353     0.304
96.5204      1.363     0.287
97.9243      1.373     0.269
99.3486      1.383     0.250
100.794      1.393     0.229
102.260      1.404     0.207
103.747      1.415     0.184
105.256      1.426     0.160
106.787      1.437     0.134
108.340      1.449     0.107
109.916      1.461     0.078
111.515      1.473     0.048
113.137      1.485     0.016
114.783      1.498    -0.017
116.452      1.511    -0.053
118.146      1.524    -0.090
119.865      1.538    -0.129
121.608      1.551    -0.170
123.377      1.566    -0.213
125.171      1.580    -0.258
126.992      1.595    -0.305
128.839      1.610    -0.355
130.713      1.625    -0.407
132.615      1.640    -0.461
134.543      1.656    -0.518
136.500      1.673    -0.577
138.486      1.689    -0.640
140.500      1.706    -0.704
142.544      1.723    -0.772
144.617      1.741    -0.843
146.721      1.758    -0.917
148.855      1.776    -0.994
151.020      1.795    -1.075
153.217      1.813    -1.158
155.445      1.833    -1.246
157.706      1.852    -1.337
160.000      1.872    -1.431
162.327      1.891    -1.530
164.688      1.912    -1.632
167.084      1.932    -1.739
169.514      1.953    -1.850
171.980      1.974    -1.965
174.481      1.996    -2.084
177.019      2.018    -2.209
179.594      2.040    -2.337
182.206      2.062    -2.471
184.856      2.085    -2.610
187.545      2.107    -2.753
190.273      2.130    -2.902
193.041      2.154    -3.057
195.849      2.177    -3.217
198.697      2.201    -3.382
201.587      2.225    -3.553
204.520      2.250    -3.731
207.494      2.274    -3.914
210.512      2.299    -4.104
213.574      2.323    -4.300
216.681      2.348    -4.502
219.833      2.373    -4.711
223.030      2.399    -4.927
226.274      2.424    -5.149
229.565      2.449    -5.379
232.905      2.475    -5.616
236.292      2.500    -5.861
239.729      2.526    -6.112
243.216      2.551    -6.372
246.754      2.577    -6.639
250.343      2.603    -6.914
253.984      2.628    -7.197
257.678      2.653    -7.488
261.426      2.679    -7.787
265.229      2.704    -8.095
269.087      2.729    -8.411
273.001      2.753    -8.736
276.972      2.778    -9.070
281.000      2.802    -9.412
285.088      2.826    -9.763
289.234      2.850   -10.123
293.441      2.873   -10.492
297.709      2.896   -10.870
302.040      2.918   -11.258
306.433      2.940   -11.654
310.890      2.961   -12.060
315.412      2.982   -12.475
320.000      3.002   -12.900
324.655      3.022   -13.334
329.377      3.041   -13.778
334.168      3.059   -14.230
339.028      3.077   -14.692
343.959      3.093   -15.164
348.962      3.109   -15.644
354.038      3.124   -16.135
359.188      3.138   -16.634
364.412      3.151   -17.143
369.713      3.162   -17.660
375.090      3.173   -18.186
380.546      3.183   -18.721
386.081      3.191   -19.264
391.697      3.199   -19.816
397.394      3.204   -20.377
403.175      3.209   -20.945
409.039      3.212   -21.520
414.989      3.214   -22.104
421.025      3.214   -22.694
427.149      3.213   -23.292
433.362      3.211   -23.895
439.665      3.206   -24.505
446.060      3.200   -25.120
452.548      3.193   -25.742
459.131      3.184   -26.368
465.809      3.173   -26.998
472.584      3.160   -27.632
479.458      3.146   -28.269
486.432      3.129   -28.909
493.507      3.112   -29.552
500.686      3.092   -30.196
507.968      3.071   -30.840
515.357      3.048   -31.485
522.853      3.023   -32.130
530.458      2.996   -32.773
538.174      2.968   -33.415
546.002      2.939   -34.054
553.943      2.908   -34.690
562.001      2.876   -35.322
570.175      2.842   -35.949
578.469      2.807   -36.571
586.883      2.771   -37.187
595.419      2.735   -37.797
604.080      2.697   -38.399
612.866      2.659   -38.994
621.780      2.621   -39.582
630.824      2.582   -40.161
640.000      2.544   -40.733
649.309      2.506   -41.296
658.753      2.468   -41.851
668.335      2.432   -42.399
678.056      2.396   -42.940
687.919      2.362   -43.476
697.925      2.330   -44.006
708.077      2.299   -44.532
718.376      2.270   -45.057
728.825      2.244   -45.581
739.426      2.221   -46.108
750.181      2.200   -46.638
761.093      2.183   -47.174
772.163      2.168   -47.720
783.394      2.157   -48.280
794.789      2.149   -48.854
806.349      2.144   -49.447
818.078      2.142   -50.062
829.977      2.144   -50.703
842.050      2.148   -51.373
854.298      2.154   -52.075
866.724      2.163   -52.811
879.330      2.174   -53.586
892.120      2.185   -54.401
905.097      2.198   -55.260
918.262      2.211   -56.164
931.618      2.224   -57.115
945.169      2.236   -58.113
958.917      2.247   -59.160
972.864      2.256   -60.258
987.015      2.261   -61.405
1001.37      2.264   -62.601
1015.94      2.262   -63.845
1030.71      2.256   -65.135
1045.71      2.244   -66.470
1060.92      2.226   -67.848
1076.35      2.201   -69.266
1092.00      2.170   -70.719
1107.89      2.131   -72.205
1124.00      2.084   -73.721
1140.35      2.028   -75.261
1156.94      1.964   -76.820
1173.77      1.891   -78.393
1190.84      1.809   -79.975
1208.16      1.717   -81.561
1225.73      1.617   -83.144
1243.56      1.509   -84.718
1261.65      1.392   -86.278
1280.00      1.267   -87.818
1298.62      1.135   -89.334
1317.51      0.997   -90.820
1336.67      0.854   -92.273
1356.11      0.707   -93.689
1375.84      0.557   -95.068
1395.85      0.405   -96.411
1416.15      0.254   -97.718
1436.75      0.104   -98.994
1457.65     -0.043  -100.245
1478.85     -0.187  -101.481
1500.36     -0.325  -102.711
1522.19     -0.458  -103.948
1544.33     -0.585  -105.204
1566.79     -0.706  -106.494
1589.58     -0.823  -107.834
1612.70     -0.935  -109.235
1636.16     -1.046  -110.710
1659.95     -1.155  -112.269
1684.10     -1.267  -113.921
1708.60     -1.382  -115.671
1733.45     -1.505  -117.519
1758.66     -1.636  -119.466
1784.24     -1.780  -121.508
1810.19     -1.937  -123.638
1836.52     -2.111  -125.847
1863.24     -2.303  -128.123
1890.34     -2.515  -130.453
1917.83     -2.748  -132.825
1945.73     -3.003  -135.222
1974.03     -3.280  -137.626
2002.74     -3.579  -140.024
2031.87     -3.899  -142.403
2061.43     -4.240  -144.748
2091.41     -4.599  -147.049
2121.83     -4.975  -149.300
2152.69     -5.366  -151.501
2184.01     -5.769  -153.656
2215.77     -6.184  -155.773
2248.00     -6.609  -157.867
2280.70     -7.044  -159.959
2313.87     -7.489  -162.074
2347.53     -7.946  -164.236
2381.68     -8.420  -166.469
2416.32     -8.915  -168.796
2451.46     -9.437  -171.235
2487.12     -9.995  -173.794
2523.30    -10.596  -176.476
2560.00    -11.251  -179.276
2597.24    -11.971   177.816
2635.01    -12.765   174.820
2673.34    -13.648   171.759
2712.23    -14.633   168.656
2751.68    -15.740   165.531
2791.70    -16.992   162.398
2832.31    -18.422   159.468
2873.50    -20.130   156.423
2915.30    -22.256   153.230
2957.70    -25.071   149.945
3000.72    -29.221   146.782
3044.37    -37.237   145.878
3088.65    -43.385   -73.834
3133.58    -31.844   -43.698
3179.16    -27.081   -48.692
3225.40    -24.207   -52.500
3272.31    -22.193   -56.020
3319.91    -20.677   -59.312
3368.20    -19.478   -62.384
3417.19    -18.489   -65.264
3466.89    -17.643   -68.013
3517.32    -16.893   -70.725
3568.48    -16.211   -73.516
3620.39    -15.585   -76.504
3673.05    -15.014   -79.781
3726.47    -14.504   -83.397
3780.67    -14.066   -87.352
3835.67    -13.711   -91.605
3891.46    -13.448   -96.072
3948.06    -13.279  -100.643
4005.49    -13.201  -105.205
4063.75    -13.206  -109.648
4122.86    -13.279  -113.887
4182.82    -13.399  -117.889
4243.66    -13.546  -121.687
4305.39    -13.704  -125.377
4368.01    -13.869  -129.098
4431.55    -14.048  -132.992
4496.01    -14.260  -137.161
4561.40    -14.529  -141.627
4627.75    -14.879  -146.337
4695.06    -15.327  -151.182
4763.35    -15.881  -156.023
4832.64    -16.539  -160.738
4902.93    -17.294  -165.263
4974.24    -18.140  -169.622
5046.60    -19.083  -173.916
5120.00    -20.154  -178.279
5194.47    -21.563   176.496
5270.03    -23.253   171.465
5346.68    -25.319   166.529
5424.45    -27.999   161.393
5503.35    -31.941   155.647
5583.40    -40.042   150.782
5664.61    -48.778     8.768
5747.01    -34.068   -35.486
5830.60    -29.207   -46.240
5915.41    -26.328   -55.085
6001.45    -24.441   -63.188
6088.74    -23.161   -70.498
6177.30    -22.257   -76.888
6267.15    -21.559   -82.448
6358.31    -20.947   -87.585
6450.80    -20.377   -92.909
6544.62    -19.877   -98.914
6639.82    -19.517  -105.716
6736.40    -19.353  -113.067
6834.38    -19.405  -120.540
6933.79    -19.645  -127.745
7034.64    -20.022  -134.535
7136.96    -20.492  -141.092
7240.77    -21.062  -147.763
7346.09    -21.792  -154.750
7452.94    -22.745  -161.814
7561.35    -23.916  -168.530
7671.33    -25.436  -175.245
7782.91    -27.486   178.614
7896.12    -30.319   174.492
8010.97    -34.394   175.845
8127.49    -41.175  -157.225
8245.71    -43.700  -123.012
8365.65    -36.495   -74.558
8487.33    -31.984   -71.084
8610.78    -29.092   -75.262
8736.03    -27.127   -82.071
8863.09    -25.775   -89.990
8992.01    -24.873   -98.394
9122.80    -24.326  -106.911
9255.50    -24.052  -115.293
9390.12    -23.977  -123.612
9526.70    -24.085  -132.246
9665.27    -24.438  -141.386
9805.86    -25.156  -150.687
9948.49    -26.250  -160.053
10093.2    -27.795  -169.330
10240.0    -29.933  -178.200
10388.9    -33.057   173.177
10540.1    -38.750   166.340
10693.4    -52.702   -87.586
10848.9    -40.021   -74.482
11006.7    -34.603   -73.127
11166.8    -31.843   -77.817
11329.2    -29.696   -84.453
11494.0    -28.101   -94.573
11661.2    -27.232  -106.433
11830.8    -26.926  -118.082
12002.9    -26.963  -129.625
12177.5    -27.342  -141.379
12354.6    -28.071  -153.451
12534.3    -29.340  -166.558
12716.6    -31.484  -179.974
12901.6    -34.838   167.904
13089.2    -40.304   157.882
13279.6    -55.973   156.851
13472.8    -41.196   -39.639
13668.8    -35.115   -61.619
13867.6    -32.344   -78.312
14069.3    -30.731   -92.262
14273.9    -29.705  -106.793
14481.5    -29.466  -121.392
14692.2    -29.881  -136.284
14905.9    -30.907  -150.348
15122.7    -32.342  -165.723
15342.7    -35.126   173.407
15565.8    -41.413   144.914
15792.2    -60.302   -84.277
16021.9    -42.079   -34.119
16255.0    -36.409   -54.885
16491.4    -33.560   -72.549
16731.3    -32.099   -89.886
16974.7    -31.604  -106.716
17221.6    -31.846  -123.235
17472.1    -32.999  -139.715
17726.2    -35.305  -154.228
17984.0    -39.341  -166.596
18245.6    -52.586  -142.555
18511.0    -45.858   -79.092
18780.2    -38.428   -71.605
19053.4    -35.190   -84.144
19330.5    -33.616  -100.230
19611.7    -33.456  -117.742
19897.0    -34.162  -133.182
20186.4    -35.881  -151.655
20480.0    -40.694  -167.554
20777.9    -53.144  -126.960
21080.1    -45.790   -78.660
21386.7    -38.775   -76.658
21697.8    -36.192   -93.138
22013.4    -35.017  -110.453
22333.6    -35.504  -131.206
22658.4    -37.335  -148.422
22988.0    -41.551  -167.575
23322.4    -56.992  -126.516
23661.6    -45.736   -70.681
24005.8    -39.018   -74.472
24355.0    -36.604   -94.623
24709.2    -35.954  -114.955
25068.6    -37.288  -138.735
25433.2    -41.375  -156.166
25803.2    -53.233  -127.749
26178.5    -47.484   -85.469
26559.3    -40.679   -79.887
26945.6    -38.175   -99.713
27337.5    -37.900  -122.480
27735.2    -40.139  -143.514
28138.6    -46.335  -152.829
28547.9    -55.662   -99.632
28963.1    -42.743   -67.569
29384.4    -39.294   -93.687
29811.8    -38.948  -115.763
30245.4    -41.040  -137.487
30685.3    -47.846  -142.398
31131.7    -53.405   -89.201
31584.5    -43.268   -78.534
32043.9    -40.231  -101.199
32510.0    -40.450  -127.904
32982.8    -44.365  -156.190
33462.6    -60.262  -123.575
33949.3    -46.188   -61.334
34443.1    -41.736   -80.669
34944.1    -41.065  -111.225
35452.4    -44.344  -142.337
35968.0    -59.016   -79.055
36491.2    -46.658   -55.573
37022.0    -42.317   -76.721
37560.5    -42.214  -106.508
38106.8    -46.830  -129.496
38661.1    -60.960   -84.458
39223.4    -45.550   -36.876
39793.9    -42.735   -59.072
