Freq[Hz]     dBSPL  Phase[Deg]
5.00000      1.814     0.939
5.07273      1.815     0.952
5.14651      1.815     0.966
5.22137      1.815     0.980
5.29732      1.815     0.995
5.37437      1.815     1.009
5.45254      1.815     1.024
5.53185      1.815     1.039
5.61231      1.815     1.054
5.69394      1.815     1.069
5.77676      1.816     1.085
5.86079      1.816     1.101
5.94604      1.816     1.117
6.03252      1.816     1.133
6.12027      1.816     1.150
6.20929      1.816     1.166
6.29961      1.817     1.183
6.39124      1.817     1.200
6.48420      1.817     1.218
6.57851      1.817     1.236
6.67420      1.817     1.254
6.77128      1.817     1.272
6.86977      1.818     1.290
6.96969      1.818     1.309
7.07107      1.818     1.328
7.17392      1.818     1.348
7.27827      1.819     1.367
7.38413      1.819     1.387
7.49154      1.819     1.407
7.60050      1.819     1.428
7.71105      1.819     1.448
7.82321      1.820     1.470
7.93701      1.820     1.491
8.05245      1.820     1.513
8.16958      1.821     1.535
8.28841      1.821     1.557
8.40896      1.821     1.579
8.53128      1.821     1.602
8.65537      1.822     1.626
8.78126      1.822     1.649
8.90899      1.822     1.673
9.03857      1.823     1.698
9.17004      1.823     1.722
9.30342      1.823     1.747
9.43874      1.824     1.773
9.57603      1.824     1.798
9.71532      1.825     1.824
9.85663      1.825     1.851
10.0000      1.825     1.878
10.1455      1.826     1.905
10.2930      1.826     1.933
10.4427      1.827     1.961
10.5946      1.827     1.989
10.7487      1.828     2.018
10.9051      1.828     2.047
11.0637      1.829     2.077
11.2246      1.829     2.107
11.3879      1.830     2.137
11.5535      1.830     2.168
11.7216      1.831     2.200
11.8921      1.831     2.231
12.0650      1.832     2.264
12.2405      1.833     2.296
12.4186      1.833     2.330
12.5992      1.834     2.363
12.7825      1.835     2.397
12.9684      1.835     2.432
13.1570      1.836     2.467
13.3484      1.837     2.503
13.5426      1.838     2.539
13.7395      1.838     2.576
13.9394      1.839     2.613
14.1421      1.840     2.651
14.3478      1.841     2.689
14.5565      1.842     2.728
14.7683      1.843     2.767
14.9831      1.844     2.807
15.2010      1.845     2.847
15.4221      1.845     2.887
15.6464      1.846     2.928
15.8740      1.848     2.970
16.1049      1.849     3.012
16.3392      1.850     3.055
16.5768      1.851     3.098
16.8179      1.852     3.142
17.0626      1.853     3.187
17.3107      1.854     3.232
17.5625      1.856     3.278
17.8180      1.857     3.325
18.0771      1.858     3.372
18.3401      1.860     3.420
18.6068      1.861     3.468
18.8775      1.863     3.517
19.1521      1.864     3.567
19.4306      1.866     3.618
19.7133      1.867     3.669
20.0000      1.869     3.721
20.2909      1.871     3.774
20.5860      1.872     3.827
20.8855      1.874     3.881
21.1893      1.876     3.936
21.4975      1.878     3.991
21.8102      1.880     4.048
22.1274      1.882     4.105
22.4492      1.884     4.163
22.7758      1.886     4.221
23.1071      1.888     4.281
23.4432      1.890     4.341
23.7841      1.893     4.402
24.1301      1.895     4.464
24.4811      1.897     4.526
24.8372      1.900     4.590
25.1984      1.902     4.654
25.5649      1.905     4.719
25.9368      1.908     4.785
26.3141      1.911     4.852
26.6968      1.913     4.920
27.0851      1.916     4.989
27.4791      1.919     5.058
27.8788      1.923     5.129
28.2843      1.926     5.200
28.6957      1.929     5.272
29.1131      1.932     5.345
29.5365      1.936     5.420
29.9661      1.940     5.495
30.4020      1.943     5.571
30.8442      1.947     5.648
31.2929      1.951     5.725
31.7480      1.955     5.804
32.2098      1.959     5.884
32.6783      1.963     5.965
33.1536      1.968     6.047
33.6359      1.972     6.130
34.1251      1.977     6.214
34.6215      1.981     6.299
35.1250      1.986     6.384
35.6359      1.991     6.471
36.1543      1.996     6.559
36.6802      2.002     6.648
37.2137      2.007     6.738
37.7550      2.013     6.830
38.3041      2.018     6.922
38.8613      2.024     7.015
39.4265      2.030     7.109
40.0000      2.037     7.204
40.5818      2.043     7.301
41.1721      2.049     7.398
41.7710      2.056     7.497
42.3785      2.063     7.596
42.9949      2.070     7.697
43.6203      2.077     7.799
44.2548      2.085     7.901
44.8985      2.093     8.005
45.5515      2.101     8.110
46.2141      2.109     8.216
46.8863      2.117     8.323
47.5683      2.125     8.431
48.2602      2.134     8.540
48.9621      2.143     8.651
49.6743      2.152     8.762
50.3968      2.162     8.874
51.1299      2.172     8.988
51.8736      2.182     9.102
52.6281      2.192     9.217
53.3936      2.202     9.334
54.1702      2.213     9.451
54.9581      2.224     9.569
55.7575      2.235     9.689
56.5685      2.247     9.809
57.3914      2.259     9.930
58.2261      2.271    10.052
59.0730      2.284    10.175
59.9323      2.296    10.299
60.8040      2.310    10.424
61.6884      2.323    10.550
62.5857      2.337    10.676
63.4960      2.351    10.804
64.4196      2.365    10.932
65.3566      2.380    11.060
66.3073      2.396    11.190
67.2717      2.411    11.320
68.2502      2.427    11.451
69.2429      2.443    11.583
70.2501      2.460    11.715
71.2719      2.477    11.847
72.3086      2.495    11.980
73.3603      2.513    12.114
74.4274      2.531    12.248
75.5099      2.550    12.382
76.6083      2.569    12.517
77.7226      2.588    12.652
78.8531      2.608    12.787
80.0000      2.629    12.923
81.1636      2.650    13.058
82.3442      2.671    13.194
83.5419      2.693    13.330
84.7570      2.716    13.465
85.9899      2.738    13.601
87.2406      2.762    13.736
88.5096      2.785    13.871
89.7970      2.810    14.006
91.1031      2.835    14.141
92.4282      2.860    14.275
93.7726      2.886    14.408
95.1366      2.912    14.541
96.5204      2.939    14.674
97.9243      2.966    14.805
99.3486      2.994    14.936
100.794      3.023    15.065
102.260      3.052    15.194
103.747      3.081    15.322
105.256      3.111    15.448
106.787      3.142    15.573
108.340      3.173    15.697
109.916      3.205    15.819
111.515      3.237    15.939
113.137      3.270    16.058
114.783      3.303    16.176
116.452      3.337    16.291
118.146      3.372    16.404
119.865      3.407    16.515
121.608      3.442    16.624
123.377      3.479    16.730
125.171      3.515    16.834
126.992      3.553    16.936
128.839      3.590    17.035
130.713      3.629    17.131
132.615      3.668    17.224
134.543      3.707    17.314
136.500      3.747    17.401
138.486      3.788    17.484
140.500      3.829    17.564
142.544      3.870    17.641
144.617      3.912    17.714
146.721      3.955    17.783
148.855      3.998    17.848
151.020      4.041    17.909
153.217      4.085    17.967
155.445      4.130    18.020
157.706      4.175    18.068
160.000      4.220    18.112
162.327      4.266    18.151
164.688      4.312    18.185
167.084      4.359    18.215
169.514      4.406    18.240
171.980      4.453    18.259
174.481      4.500    18.273
177.019      4.548    18.282
179.594      4.597    18.285
182.206      4.645    18.283
184.856      4.694    18.275
187.545      4.743    18.262
190.273      4.793    18.242
193.041      4.842    18.217
195.849      4.892    18.185
198.697      4.942    18.147
201.587      4.992    18.103
204.520      5.042    18.053
207.494      5.093    17.996
210.512      5.143    17.932
213.574      5.193    17.862
216.681      5.244    17.786
219.833      5.294    17.703
223.030      5.345    17.613
226.274      5.395    17.516
229.565      5.445    17.412
232.905      5.496    17.301
236.292      5.546    17.183
239.729      5.595    17.059
243.216      5.645    16.927
246.754      5.694    16.788
250.343      5.743    16.642
253.984      5.792    16.490
257.678      5.840    16.330
261.426      5.888    16.163
265.229      5.936    15.989
269.087      5.983    15.808
273.001      6.030    15.620
276.972      6.076    15.426
281.000      6.122    15.224
285.088      6.167    15.016
289.234      6.211    14.801
293.441      6.255    14.580
297.709      6.298    14.352
302.040      6.340    14.117
306.433      6.382    13.876
310.890      6.422    13.629
315.412      6.462    13.377
320.000      6.501    13.118
324.655      6.540    12.853
329.377      6.577    12.583
334.168      6.613    12.308
339.028      6.648    12.027
343.959      6.683    11.742
348.962      6.716    11.452
354.038      6.748    11.157
359.188      6.779    10.858
364.412      6.810    10.555
369.713      6.838    10.248
375.090      6.866     9.938
380.546      6.893     9.625
386.081      6.918     9.309
391.697      6.942     8.990
397.394      6.966     8.669
403.175      6.987     8.346
409.039      7.008     8.021
414.989      7.027     7.695
421.025      7.046     7.368
427.149      7.063     7.040
433.362      7.079     6.712
439.665      7.093     6.384
446.060      7.107     6.056
452.548      7.120     5.728
459.131      7.131     5.402
465.809      7.141     5.076
472.584      7.151     4.752
479.458      7.159     4.429
486.432      7.167     4.108
493.507      7.173     3.788
500.686      7.179     3.471
507.968      7.184     3.155
515.357      7.188     2.842
522.853      7.192     2.531
530.458      7.195     2.222
538.174      7.197     1.914
546.002      7.199     1.609
553.943      7.200     1.305
562.001      7.201     1.002
570.175      7.202     0.700
578.469      7.202     0.398
586.883      7.203     0.096
595.419      7.202    -0.207
604.080      7.202    -0.510
612.866      7.201    -0.815
621.780      7.200    -1.123
630.824      7.199    -1.434
640.000      7.197    -1.749
649.309      7.195    -2.068
658.753      7.192    -2.392
668.335      7.189    -2.721
678.056      7.185    -3.058
687.919      7.180    -3.401
697.925      7.173    -3.751
708.077      7.166    -4.108
718.376      7.157    -4.473
728.825      7.146    -4.846
739.426      7.133    -5.226
750.181      7.118    -5.613
761.093      7.101    -6.006
772.163      7.080    -6.405
783.394      7.057    -6.808
794.789      7.030    -7.213
806.349      7.000    -7.619
818.078      6.966    -8.023
829.977      6.927    -8.423
842.050      6.885    -8.817
854.298      6.838    -9.201
866.724      6.786    -9.571
879.330      6.730    -9.923
892.120      6.669   -10.252
905.097      6.604   -10.556
918.262      6.535   -10.828
931.618      6.462   -11.064
945.169      6.385   -11.259
958.917      6.305   -11.407
972.864      6.224   -11.505
987.015      6.141   -11.548
1001.37      6.058   -11.532
1015.94      5.976   -11.455
1030.71      5.897   -11.315
1045.71      5.822   -11.114
1060.92      5.752   -10.851
1076.35      5.690   -10.532
1092.00      5.636   -10.160
1107.89      5.592    -9.745
1124.00      5.559    -9.299
1140.35      5.539    -8.830
1156.94      5.532    -8.354
1173.77      5.539    -7.884
1190.84      5.558    -7.436
1208.16      5.590    -7.026
1225.73      5.634    -6.665
1243.56      5.687    -6.365
1261.65      5.748    -6.137
1280.00      5.816    -5.989
1298.62      5.888    -5.925
1317.51      5.961    -5.946
1336.67      6.034    -6.051
1356.11      6.104    -6.237
1375.84      6.170    -6.499
1395.85      6.230    -6.828
1416.15      6.283    -7.215
1436.75      6.326    -7.649
1457.65      6.361    -8.117
1478.85      6.386    -8.611
1500.36      6.401    -9.115
1522.19      6.407    -9.619
1544.33      6.404   -10.112
1566.79      6.393   -10.586
1589.58      6.375   -11.031
1612.70      6.352   -11.443
1636.16      6.325   -11.818
1659.95      6.296   -12.154
1684.10      6.265   -12.457
1708.60      6.235   -12.727
1733.45      6.207   -12.971
1758.66      6.180   -13.196
1784.24      6.156   -13.412
1810.19      6.133   -13.624
1836.52      6.111   -13.839
1863.24      6.090   -14.061
1890.34      6.069   -14.290
1917.83      6.045   -14.528
1945.73      6.019   -14.767
1974.03      5.989   -15.001
2002.74      5.956   -15.221
2031.87      5.919   -15.418
2061.43      5.879   -15.582
2091.41      5.838   -15.703
2121.83      5.797   -15.776
2152.69      5.759   -15.800
2184.01      5.726   -15.778
2215.77      5.699   -15.716
2248.00      5.682   -15.629
2280.70      5.674   -15.532
2313.87      5.677   -15.445
2347.53      5.689   -15.384
2381.68      5.709   -15.366
2416.32      5.734   -15.402
2451.46      5.764   -15.502
2487.12      5.794   -15.663
2523.30      5.822   -15.881
2560.00      5.846   -16.148
2597.24      5.866   -16.453
2635.01      5.880   -16.783
2673.34      5.889   -17.124
2712.23      5.892   -17.468
2751.68      5.892   -17.811
2791.70      5.889   -18.148
2832.31      5.887   -18.364
2873.50      5.887   -18.572
2915.30      5.889   -18.795
2957.70      5.893   -19.029
3000.72      5.898   -19.280
3044.37      5.906   -19.554
3088.65      5.916   -19.865
3133.58      5.925   -20.216
3179.16      5.931   -20.610
3225.40      5.931   -21.042
3272.31      5.923   -21.499
3319.91      5.906   -21.953
3368.20      5.879   -22.376
3417.19      5.845   -22.740
3466.89      5.809   -23.025
3517.32      5.777   -23.227
3568.48      5.755   -23.364
3620.39      5.748   -23.476
3673.05      5.757   -23.612
3726.47      5.778   -23.819
3780.67      5.804   -24.128
3835.67      5.829   -24.548
3891.46      5.845   -25.053
3948.06      5.848   -25.599
4005.49      5.838   -26.141
4063.75      5.819   -26.643
4122.86      5.796   -27.089
4182.82      5.776   -27.492
4243.66      5.761   -27.885
4305.39      5.749   -28.296
4368.01      5.738   -28.737
4431.55      5.721   -29.200
4496.01      5.698   -29.658
4561.40      5.671   -30.076
4627.75      5.645   -30.441
4695.06      5.625   -30.766
4763.35      5.614   -31.085
4832.64      5.611   -31.435
4902.93      5.612   -31.839
4974.24      5.613   -32.300
5046.60      5.609   -32.794
5120.00      5.601   -33.301
5194.47      5.588   -33.761
5270.03      5.575   -34.228
5346.68      5.563   -34.699
5424.45      5.553   -35.180
5503.35      5.545   -35.684
5583.40      5.537   -36.218
5664.61      5.525   -36.782
5747.01      5.509   -37.357
5830.60      5.489   -37.914
5915.41      5.470   -38.448
6001.45      5.456   -38.981
6088.74      5.445   -39.540
6177.30      5.434   -40.145
6267.15      5.417   -40.788
6358.31      5.393   -41.428
6450.80      5.366   -42.031
6544.62      5.343   -42.607
6639.82      5.326   -43.194
6736.40      5.311   -43.833
6834.38      5.291   -44.524
6933.79      5.263   -45.219
7034.64      5.229   -45.868
7136.96      5.200   -46.478
7240.77      5.178   -47.100
7346.09      5.159   -47.766
7452.94      5.135   -48.464
7561.35      5.108   -49.175
7671.33      5.077   -49.893
7782.91      5.043   -50.586
7896.12      5.015   -51.256
8010.97      4.994   -51.958
8127.49      4.973   -52.730
8245.71      4.945   -53.526
8365.65      4.914   -54.313
8487.33      4.886   -55.123
8610.78      4.855   -55.983
8736.03      4.815   -56.853
8863.09      4.770   -57.684
8992.01      4.729   -58.492
9122.80      4.691   -59.331
9255.50      4.651   -60.197
9390.12      4.608   -61.062
9526.70      4.565   -61.939
9665.27      4.522   -62.831
9805.86      4.476   -63.745
9948.49      4.429   -64.681
10093.2      4.378   -65.620
10240.0      4.325   -66.557
10388.9      4.274   -67.492
10540.1      4.223   -68.449
10693.4      4.171   -69.431
10848.9      4.118   -70.402
11006.7      4.073   -71.424
11166.8      4.019   -72.547
11329.2      3.950   -73.654
11494.0      3.881   -74.701
11661.2      3.817   -75.785
11830.8      3.746   -76.895
12002.9      3.676   -77.986
12177.5      3.603   -79.116
12354.6      3.528   -80.272
12534.3      3.448   -81.431
12716.6      3.370   -82.585
12901.6      3.291   -83.784
13089.2      3.207   -84.992
13279.6      3.124   -86.242
13472.8      3.027   -87.523
13668.8      2.931   -88.729
13867.6      2.845   -90.004
14069.3      2.747   -91.357
14273.9      2.640   -92.689
14481.5      2.533   -94.048
14692.2      2.419   -95.406
14905.9      2.307   -96.776
15122.7      2.189   -98.195
15342.7      2.064   -99.618
15565.8      1.932  -101.043
15792.2      1.802  -102.417
16021.9      1.684  -103.893
16255.0      1.546  -105.483
16491.4      1.394  -107.027
16731.3      1.241  -108.578
16974.7      1.080  -110.120
17221.6      0.929  -111.671
17472.1      0.766  -113.377
17726.2      0.580  -115.041
17984.0      0.393  -116.640
18245.6      0.216  -118.278
18511.0      0.021  -120.052
18780.2     -0.183  -121.761
19053.4     -0.391  -123.520
19330.5     -0.608  -125.303
19611.7     -0.832  -127.162
19897.0     -1.078  -128.986
20186.4     -1.325  -130.882
20480.0     -1.593  -132.698
20777.9     -1.854  -134.585
21080.1     -2.131  -136.540
21386.7     -2.423  -138.522
21697.8     -2.728  -140.510
22013.4     -3.049  -142.603
22333.6     -3.399  -144.611
22658.4     -3.744  -146.672
22988.0     -4.120  -148.795
23322.4     -4.511  -150.898
23661.6     -4.914  -153.068
24005.8     -5.357  -155.380
24355.0     -5.831  -157.481
24709.2     -6.287  -159.631
25068.6     -6.815  -162.134
25433.2     -7.371  -164.415
25803.2     -7.960  -166.723
26178.5     -8.593  -169.073
26559.3     -9.266  -171.510
26945.6    -10.008  -173.866
27337.5    -10.787  -176.462
27735.2    -11.681  -178.996
28138.6    -12.649   178.545
28547.9    -13.724   176.061
28963.1    -14.935   173.430
29384.4    -16.333   171.005
29811.8    -17.938   168.169
30245.4    -19.961   165.551
30685.3    -22.520   163.321
31131.7    -25.925   161.010
31584.5    -31.556   158.065
32043.9    -52.932  -132.198
32510.0    -33.735   -40.230
32982.8    -27.394   -36.538
33462.6    -23.834   -37.891
33949.3    -21.390   -40.478
34443.1    -19.620   -43.310
34944.1    -18.166   -46.320
35452.4    -17.001   -49.492
35968.0    -16.011   -52.473
36491.2    -15.182   -56.104
37022.0    -14.490   -59.420
37560.5    -13.886   -62.946
38106.8    -13.392   -66.659
38661.1    -12.928   -70.374
39223.4    -12.577   -74.748
39793.9    -12.273   -79.789
