Freq[Hz]     dBSPL  Phase[Deg]
5.00000      1.615     0.545
5.07273      1.615     0.553
5.14651      1.615     0.561
5.22137      1.615     0.569
5.29732      1.615     0.577
5.37437      1.615     0.586
5.45254      1.615     0.594
5.53185      1.615     0.603
5.61231      1.615     0.612
5.69394      1.615     0.621
5.77676      1.616     0.630
5.86079      1.616     0.639
5.94604      1.616     0.648
6.03252      1.616     0.658
6.12027      1.616     0.667
6.20929      1.616     0.677
6.29961      1.616     0.687
6.39124      1.616     0.697
6.48420      1.617     0.707
6.57851      1.617     0.717
6.67420      1.617     0.728
6.77128      1.617     0.738
6.86977      1.617     0.749
6.96969      1.617     0.760
7.07107      1.617     0.771
7.17392      1.618     0.782
7.27827      1.618     0.794
7.38413      1.618     0.805
7.49154      1.618     0.817
7.60050      1.618     0.829
7.71105      1.619     0.841
7.82321      1.619     0.853
7.93701      1.619     0.866
8.05245      1.619     0.878
8.16958      1.619     0.891
8.28841      1.620     0.904
8.40896      1.620     0.917
8.53128      1.620     0.930
8.65537      1.620     0.944
8.78126      1.620     0.958
8.90899      1.621     0.972
9.03857      1.621     0.986
9.17004      1.621     1.000
9.30342      1.622     1.015
9.43874      1.622     1.029
9.57603      1.622     1.044
9.71532      1.622     1.059
9.85663      1.623     1.075
10.0000      1.623     1.090
10.1455      1.623     1.106
10.2930      1.624     1.122
10.4427      1.624     1.138
10.5946      1.624     1.155
10.7487      1.625     1.172
10.9051      1.625     1.189
11.0637      1.626     1.206
11.2246      1.626     1.223
11.3879      1.626     1.241
11.5535      1.627     1.259
11.7216      1.627     1.277
11.8921      1.628     1.296
12.0650      1.628     1.314
12.2405      1.629     1.333
12.4186      1.629     1.353
12.5992      1.630     1.372
12.7825      1.630     1.392
12.9684      1.631     1.412
13.1570      1.631     1.432
13.3484      1.632     1.453
13.5426      1.632     1.474
13.7395      1.633     1.495
13.9394      1.634     1.517
14.1421      1.634     1.539
14.3478      1.635     1.561
14.5565      1.636     1.583
14.7683      1.636     1.606
14.9831      1.637     1.629
15.2010      1.638     1.652
15.4221      1.639     1.676
15.6464      1.639     1.699
15.8740      1.640     1.723
16.1049      1.641     1.747
16.3392      1.642     1.772
16.5768      1.643     1.797
16.8179      1.644     1.822
17.0626      1.644     1.848
17.3107      1.645     1.874
17.5625      1.646     1.900
17.8180      1.647     1.927
18.0771      1.648     1.954
18.3401      1.650     1.981
18.6068      1.651     2.009
18.8775      1.652     2.037
19.1521      1.653     2.066
19.4306      1.654     2.095
19.7133      1.655     2.124
20.0000      1.657     2.154
20.2909      1.658     2.184
20.5860      1.659     2.214
20.8855      1.661     2.245
21.1893      1.662     2.277
21.4975      1.663     2.309
21.8102      1.665     2.341
22.1274      1.666     2.373
22.4492      1.668     2.406
22.7758      1.670     2.440
23.1071      1.671     2.474
23.4432      1.673     2.508
23.7841      1.675     2.543
24.1301      1.677     2.578
24.4811      1.679     2.614
24.8372      1.680     2.650
25.1984      1.682     2.687
25.5649      1.685     2.724
25.9368      1.687     2.762
26.3141      1.689     2.800
26.6968      1.691     2.838
27.0851      1.693     2.877
27.4791      1.696     2.917
27.8788      1.698     2.957
28.2843      1.701     2.997
28.6957      1.703     3.038
29.1131      1.706     3.080
29.5365      1.708     3.122
29.9661      1.711     3.165
30.4020      1.714     3.208
30.8442      1.717     3.251
31.2929      1.720     3.295
31.7480      1.723     3.340
32.2098      1.726     3.385
32.6783      1.730     3.431
33.1536      1.733     3.477
33.6359      1.736     3.524
34.1251      1.740     3.571
34.6215      1.744     3.619
35.1250      1.747     3.667
35.6359      1.751     3.716
36.1543      1.755     3.765
36.6802      1.759     3.815
37.2137      1.764     3.866
37.7550      1.768     3.917
38.3041      1.772     3.968
38.8613      1.777     4.020
39.4265      1.782     4.073
40.0000      1.786     4.126
40.5818      1.791     4.180
41.1721      1.796     4.234
41.7710      1.802     4.289
42.3785      1.807     4.344
42.9949      1.813     4.400
43.6203      1.818     4.456
44.2548      1.824     4.513
44.8985      1.830     4.570
45.5515      1.836     4.628
46.2141      1.842     4.687
46.8863      1.849     4.746
47.5683      1.856     4.805
48.2602      1.862     4.865
48.9621      1.869     4.925
49.6743      1.877     4.986
50.3968      1.884     5.047
51.1299      1.892     5.109
51.8736      1.899     5.171
52.6281      1.907     5.233
53.3936      1.915     5.296
54.1702      1.924     5.359
54.9581      1.933     5.423
55.7575      1.941     5.487
56.5685      1.950     5.551
57.3914      1.960     5.616
58.2261      1.969     5.681
59.0730      1.979     5.746
59.9323      1.989     5.811
60.8040      1.999     5.877
61.6884      2.010     5.943
62.5857      2.021     6.009
63.4960      2.032     6.075
64.4196      2.043     6.142
65.3566      2.055     6.208
66.3073      2.067     6.275
67.2717      2.079     6.341
68.2502      2.092     6.408
69.2429      2.105     6.475
70.2501      2.118     6.541
71.2719      2.131     6.608
72.3086      2.145     6.674
73.3603      2.159     6.740
74.4274      2.174     6.806
75.5099      2.189     6.872
76.6083      2.204     6.938
77.7226      2.219     7.003
78.8531      2.235     7.068
80.0000      2.251     7.132
81.1636      2.268     7.195
82.3442      2.285     7.259
83.5419      2.302     7.321
84.7570      2.320     7.383
85.9899      2.338     7.444
87.2406      2.357     7.505
88.5096      2.376     7.564
89.7970      2.395     7.623
91.1031      2.415     7.680
92.4282      2.435     7.737
93.7726      2.456     7.792
95.1366      2.477     7.846
96.5204      2.498     7.899
97.9243      2.520     7.950
99.3486      2.543     8.000
100.794      2.566     8.048
102.260      2.589     8.095
103.747      2.613     8.140
105.256      2.637     8.183
106.787      2.661     8.225
108.340      2.686     8.264
109.916      2.712     8.301
111.515      2.738     8.336
113.137      2.765     8.368
114.783      2.792     8.398
116.452      2.819     8.426
118.146      2.847     8.451
119.865      2.875     8.473
121.608      2.904     8.492
123.377      2.934     8.509
125.171      2.963     8.522
126.992      2.994     8.532
128.839      3.024     8.539
130.713      3.056     8.542
132.615      3.087     8.541
134.543      3.119     8.537
136.500      3.152     8.529
138.486      3.185     8.517
140.500      3.218     8.501
142.544      3.252     8.480
144.617      3.287     8.455
146.721      3.321     8.426
148.855      3.357     8.392
151.020      3.392     8.353
153.217      3.428     8.310
155.445      3.465     8.261
157.706      3.501     8.207
160.000      3.538     8.147
162.327      3.576     8.082
164.688      3.614     8.012
167.084      3.652     7.936
169.514      3.690     7.854
171.980      3.729     7.765
174.481      3.768     7.671
177.019      3.808     7.570
179.594      3.847     7.463
182.206      3.887     7.349
184.856      3.927     7.229
187.545      3.967     7.102
190.273      4.008     6.967
193.041      4.048     6.826
195.849      4.089     6.677
198.697      4.130     6.521
201.587      4.171     6.358
204.520      4.212     6.187
207.494      4.253     6.008
210.512      4.294     5.821
213.574      4.335     5.627
216.681      4.376     5.424
219.833      4.416     5.214
223.030      4.457     4.995
226.274      4.498     4.768
229.565      4.538     4.532
232.905      4.578     4.288
236.292      4.618     4.036
239.729      4.658     3.775
243.216      4.698     3.506
246.754      4.737     3.227
250.343      4.775     2.940
253.984      4.814     2.644
257.678      4.851     2.339
261.426      4.889     2.026
265.229      4.926     1.704
269.087      4.962     1.373
273.001      4.998     1.033
276.972      5.033     0.684
281.000      5.067     0.326
285.088      5.100    -0.040
289.234      5.133    -0.415
293.441      5.165    -0.799
297.709      5.196    -1.191
302.040      5.227    -1.592
306.433      5.256    -2.001
310.890      5.284    -2.419
315.412      5.312    -2.844
320.000      5.338    -3.278
324.655      5.363    -3.720
329.377      5.387    -4.169
334.168      5.410    -4.626
339.028      5.431    -5.090
343.959      5.451    -5.562
348.962      5.470    -6.040
354.038      5.488    -6.525
359.188      5.504    -7.017
364.412      5.519    -7.515
369.713      5.532    -8.018
375.090      5.544    -8.527
380.546      5.554    -9.042
386.081      5.563    -9.561
391.697      5.570   -10.085
397.394      5.575   -10.613
403.175      5.579   -11.145
409.039      5.581   -11.680
414.989      5.582   -12.218
421.025      5.581   -12.759
427.149      5.578   -13.302
433.362      5.573   -13.846
439.665      5.567   -14.391
446.060      5.559   -14.937
452.548      5.550   -15.484
459.131      5.539   -16.030
465.809      5.526   -16.576
472.584      5.511   -17.120
479.458      5.495   -17.662
486.432      5.478   -18.202
493.507      5.459   -18.740
500.686      5.438   -19.275
507.968      5.417   -19.806
515.357      5.393   -20.333
522.853      5.369   -20.855
530.458      5.344   -21.374
538.174      5.317   -21.887
546.002      5.289   -22.395
553.943      5.261   -22.898
562.001      5.231   -23.395
570.175      5.201   -23.887
578.469      5.170   -24.373
586.883      5.139   -24.853
595.419      5.107   -25.328
604.080      5.075   -25.797
612.866      5.043   -26.260
621.780      5.010   -26.720
630.824      4.978   -27.174
640.000      4.945   -27.624
649.309      4.913   -28.070
658.753      4.880   -28.512
668.335      4.848   -28.951
678.056      4.816   -29.388
687.919      4.784   -29.823
697.925      4.753   -30.256
708.077      4.722   -30.688
718.376      4.691   -31.119
728.825      4.660   -31.550
739.426      4.630   -31.981
750.181      4.600   -32.412
761.093      4.570   -32.843
772.163      4.540   -33.274
783.394      4.511   -33.706
794.789      4.482   -34.139
806.349      4.453   -34.571
818.078      4.424   -35.003
829.977      4.395   -35.434
842.050      4.367   -35.865
854.298      4.340   -36.295
866.724      4.312   -36.723
879.330      4.286   -37.150
892.120      4.260   -37.574
905.097      4.235   -37.997
918.262      4.212   -38.419
931.618      4.190   -38.840
945.169      4.170   -39.260
958.917      4.151   -39.680
972.864      4.135   -40.104
987.015      4.121   -40.532
1001.37      4.110   -40.966
1015.94      4.102   -41.408
1030.71      4.097   -41.861
1045.71      4.094   -42.330
1060.92      4.095   -42.818
1076.35      4.099   -43.326
1092.00      4.105   -43.859
1107.89      4.114   -44.421
1124.00      4.125   -45.015
1140.35      4.137   -45.644
1156.94      4.151   -46.309
1173.77      4.165   -47.013
1190.84      4.179   -47.758
1208.16      4.193   -48.545
1225.73      4.205   -49.372
1243.56      4.215   -50.241
1261.65      4.223   -51.148
1280.00      4.227   -52.094
1298.62      4.228   -53.076
1317.51      4.225   -54.090
1336.67      4.216   -55.134
1356.11      4.204   -56.204
1375.84      4.185   -57.297
1395.85      4.162   -58.409
1416.15      4.134   -59.537
1436.75      4.100   -60.677
1457.65      4.061   -61.826
1478.85      4.017   -62.983
1500.36      3.969   -64.143
1522.19      3.915   -65.305
1544.33      3.858   -66.467
1566.79      3.796   -67.627
1589.58      3.730   -68.784
1612.70      3.661   -69.935
1636.16      3.588   -71.080
1659.95      3.513   -72.215
1684.10      3.435   -73.343
1708.60      3.355   -74.459
1733.45      3.273   -75.563
1758.66      3.191   -76.654
1784.24      3.108   -77.734
1810.19      3.026   -78.805
1836.52      2.946   -79.868
1863.24      2.868   -80.930
1890.34      2.793   -81.995
1917.83      2.722   -83.076
1945.73      2.654   -84.177
1974.03      2.589   -85.310
2002.74      2.528   -86.484
2031.87      2.468   -87.709
2061.43      2.409   -88.992
2091.41      2.348   -90.338
2121.83      2.285   -91.748
2152.69      2.218   -93.224
2184.01      2.144   -94.763
2215.77      2.063   -96.358
2248.00      1.972   -98.001
2280.70      1.872   -99.684
2313.87      1.761  -101.400
2347.53      1.640  -103.136
2381.68      1.508  -104.884
2416.32      1.367  -106.635
2451.46      1.216  -108.386
2487.12      1.057  -110.129
2523.30      0.891  -111.862
2560.00      0.719  -113.582
2597.24      0.542  -115.296
2635.01      0.361  -117.004
2673.34      0.177  -118.714
2712.23     -0.009  -120.434
2751.68     -0.198  -122.177
2791.70     -0.390  -123.952
2832.31     -0.590  -125.724
2873.50     -0.800  -127.494
2915.30     -1.019  -129.267
2957.70     -1.245  -131.042
3000.72     -1.479  -132.821
3044.37     -1.720  -134.610
3088.65     -1.968  -136.416
3133.58     -2.223  -138.240
3179.16     -2.486  -140.082
3225.40     -2.756  -141.947
3272.31     -3.033  -143.844
3319.91     -3.316  -145.787
3368.20     -3.606  -147.800
3417.19     -3.906  -149.912
3466.89     -4.222  -152.148
3517.32     -4.561  -154.516
3568.48     -4.933  -156.999
3620.39     -5.346  -159.558
3673.05     -5.804  -162.127
3726.47     -6.307  -164.633
3780.67     -6.849  -167.021
3835.67     -7.421  -169.273
3891.46     -8.012  -171.416
3948.06     -8.621  -173.519
4005.49     -9.252  -175.668
4063.75     -9.918  -177.922
4122.86    -10.638   179.712
4182.82    -11.428   177.272
4243.66    -12.301   174.806
4305.39    -13.266   172.343
4368.01    -14.340   169.858
4431.55    -15.555   167.289
4496.01    -16.972   164.597
4561.40    -18.692   161.853
4627.75    -20.873   159.338
4695.06    -23.798   157.736
4763.35    -28.141   159.153
4832.64    -36.947  -178.544
4902.93    -42.690  -106.704
4974.24    -30.689   -58.478
5046.60    -26.023   -54.867
5120.00    -23.103   -54.989
5194.47    -21.037   -57.069
5270.03    -19.467   -59.740
5346.68    -18.229   -62.643
5424.45    -17.225   -65.610
5503.35    -16.389   -68.572
5583.40    -15.676   -71.531
5664.61    -15.059   -74.508
5747.01    -14.521   -77.492
5830.60    -14.037   -80.464
5915.41    -13.580   -83.512
6001.45    -13.139   -86.870
6088.74    -12.742   -90.762
6177.30    -12.440   -95.171
6267.15    -12.271   -99.781
6358.31    -12.219  -104.156
6450.80    -12.223  -108.101
6544.62    -12.225  -111.829
6639.82    -12.224  -115.718
6736.40    -12.263  -119.908
6834.38    -12.369  -124.252
6933.79    -12.533  -128.610
7034.64    -12.742  -133.033
7136.96    -13.009  -137.596
7240.77    -13.352  -142.203
7346.09    -13.757  -146.760
7452.94    -14.227  -151.335
7561.35    -14.801  -155.809
7671.33    -15.455  -160.373
7782.91    -16.247  -165.027
7896.12    -17.204  -169.171
8010.97    -18.206  -172.447
8127.49    -19.156  -176.061
8245.71    -20.292   178.472
8365.65    -22.048   171.957
8487.33    -24.654   167.486
8610.78    -28.001   168.264
8736.03    -32.141   176.395
8863.09    -38.281  -147.976
8992.01    -39.197  -116.073
9122.80    -33.130   -72.392
9255.50    -28.795   -64.226
9390.12    -25.664   -65.316
9526.70    -23.526   -70.331
9665.27    -22.099   -75.906
9805.86    -20.992   -81.558
9948.49    -20.161   -87.554
10093.2    -19.498   -93.364
10240.0    -18.958   -99.660
10388.9    -18.631  -106.363
10540.1    -18.473  -112.727
10693.4    -18.373  -119.161
10848.9    -18.432  -126.188
11006.7    -18.699  -132.902
11166.8    -19.025  -139.238
11329.2    -19.466  -146.100
11494.0    -20.118  -152.795
11661.2    -20.859  -159.288
11830.8    -21.798  -166.560
12002.9    -23.093  -173.809
12177.5    -24.827   179.398
12354.6    -27.094   173.372
12534.3    -30.222   168.231
12716.6    -35.267   166.039
12901.6    -49.649  -143.441
13089.2    -39.850   -74.210
13279.6    -32.418   -64.216
13472.8    -28.949   -70.158
13668.8    -26.826   -75.733
13867.6    -25.015   -82.869
14069.3    -23.881   -92.209
14273.9    -23.209  -100.645
14481.5    -22.699  -109.573
14692.2    -22.439  -118.883
14905.9    -22.449  -128.610
15122.7    -22.834  -138.105
15342.7    -23.295  -146.726
15565.8    -24.023  -157.339
15792.2    -25.272  -167.389
16021.9    -26.967  -178.022
16255.0    -29.450   172.917
16491.4    -32.753   163.075
16731.3    -39.165   152.870
16974.7    -57.594   -81.008
17221.6    -37.842   -49.250
17472.1    -33.144   -59.709
17726.2    -29.909   -66.955
17984.0    -27.558   -80.194
18245.6    -26.610   -92.829
18511.0    -25.897  -103.433
18780.2    -25.564  -115.407
19053.4    -25.675  -127.372
19330.5    -26.244  -138.653
19611.7    -27.044  -150.366
19897.0    -28.686  -161.917
20186.4    -31.050  -172.774
20480.0    -34.989   179.324
20777.9    -44.281  -165.430
21080.1    -47.597  -103.628
21386.7    -37.037   -71.395
21697.8    -32.821   -76.336
22013.4    -30.242   -86.506
22333.6    -28.789  -100.228
22658.4    -28.015  -113.234
22988.0    -28.047  -127.715
23322.4    -28.669  -141.670
23661.6    -29.930  -154.475
24005.8    -31.840  -168.623
24355.0    -36.262  -177.308
24709.2    -41.953  -166.731
25068.6    -52.003  -111.963
25433.2    -38.158   -75.352
25803.2    -33.925   -84.995
26178.5    -31.663   -99.331
26559.3    -30.614  -116.223
26945.6    -30.371  -133.481
27337.5    -30.778  -152.172
27735.2    -32.386  -172.430
28138.6    -35.158   163.169
28547.9    -40.815   122.563
28963.1    -72.428   -71.796
29384.4    -41.158   -12.420
29811.8    -35.899   -50.351
30245.4    -33.253   -75.271
30685.3    -32.205   -97.765
31131.7    -32.413  -119.788
31584.5    -33.202  -142.302
32043.9    -36.083  -164.128
32510.0    -41.646   164.666
32982.8    -67.436   -88.215
33462.6    -41.419   -20.078
33949.3    -36.327   -52.289
34443.1    -34.092   -76.776
34944.1    -33.602   -99.329
35452.4    -34.339  -120.958
35968.0    -36.942  -143.911
36491.2    -42.963  -158.091
37022.0    -61.791   -97.611
37560.5    -41.453   -31.935
38106.8    -36.944   -52.458
38661.1    -35.016   -73.869
39223.4    -35.203   -89.274
39793.9    -37.181   -97.659
