Freq[Hz]     dBSPL  Phase[Deg]
5.00000     -1.740    -1.345
5.07273     -1.740    -1.364
5.14651     -1.740    -1.384
5.22137     -1.740    -1.404
5.29732     -1.740    -1.425
5.37437     -1.740    -1.445
5.45254     -1.741    -1.466
5.53185     -1.741    -1.488
5.61231     -1.741    -1.509
5.69394     -1.741    -1.531
5.77676     -1.741    -1.554
5.86079     -1.741    -1.576
5.94604     -1.741    -1.599
6.03252     -1.741    -1.622
6.12027     -1.741    -1.646
6.20929     -1.741    -1.670
6.29961     -1.741    -1.694
6.39124     -1.741    -1.719
6.48420     -1.741    -1.744
6.57851     -1.741    -1.769
6.67420     -1.741    -1.795
6.77128     -1.741    -1.821
6.86977     -1.741    -1.847
6.96969     -1.741    -1.874
7.07107     -1.741    -1.901
7.17392     -1.741    -1.929
7.27827     -1.741    -1.957
7.38413     -1.741    -1.985
7.49154     -1.741    -2.014
7.60050     -1.741    -2.044
7.71105     -1.741    -2.073
7.82321     -1.741    -2.103
7.93701     -1.742    -2.134
8.05245     -1.742    -2.165
8.16958     -1.742    -2.197
8.28841     -1.742    -2.228
8.40896     -1.742    -2.261
8.53128     -1.742    -2.294
8.65537     -1.742    -2.327
8.78126     -1.742    -2.361
8.90899     -1.742    -2.395
9.03857     -1.742    -2.430
9.17004     -1.742    -2.465
9.30342     -1.742    -2.501
9.43874     -1.742    -2.538
9.57603     -1.742    -2.574
9.71532     -1.742    -2.612
9.85663     -1.743    -2.650
10.0000     -1.743    -2.688
10.1455     -1.743    -2.727
10.2930     -1.743    -2.767
10.4427     -1.743    -2.807
10.5946     -1.743    -2.848
10.7487     -1.743    -2.889
10.9051     -1.743    -2.931
11.0637     -1.743    -2.974
11.2246     -1.743    -3.017
11.3879     -1.744    -3.061
11.5535     -1.744    -3.106
11.7216     -1.744    -3.151
11.8921     -1.744    -3.197
12.0650     -1.744    -3.243
12.2405     -1.744    -3.290
12.4186     -1.744    -3.338
12.5992     -1.744    -3.386
12.7825     -1.745    -3.436
12.9684     -1.745    -3.486
13.1570     -1.745    -3.536
13.3484     -1.745    -3.588
13.5426     -1.745    -3.640
13.7395     -1.745    -3.693
13.9394     -1.746    -3.746
14.1421     -1.746    -3.801
14.3478     -1.746    -3.856
14.5565     -1.746    -3.912
14.7683     -1.746    -3.969
14.9831     -1.746    -4.027
15.2010     -1.747    -4.085
15.4221     -1.747    -4.145
15.6464     -1.747    -4.205
15.8740     -1.747    -4.266
16.1049     -1.747    -4.328
16.3392     -1.748    -4.392
16.5768     -1.748    -4.455
16.8179     -1.748    -4.520
17.0626     -1.748    -4.586
17.3107     -1.749    -4.653
17.5625     -1.749    -4.721
17.8180     -1.749    -4.789
18.0771     -1.750    -4.859
18.3401     -1.750    -4.930
18.6068     -1.750    -5.002
18.8775     -1.750    -5.074
19.1521     -1.751    -5.148
19.4306     -1.751    -5.223
19.7133     -1.751    -5.299
20.0000     -1.752    -5.376
20.2909     -1.752    -5.454
20.5860     -1.752    -5.534
20.8855     -1.753    -5.614
21.1893     -1.753    -5.696
21.4975     -1.754    -5.779
21.8102     -1.754    -5.863
22.1274     -1.754    -5.948
22.4492     -1.755    -6.035
22.7758     -1.755    -6.122
23.1071     -1.756    -6.211
23.4432     -1.756    -6.302
23.7841     -1.757    -6.393
24.1301     -1.757    -6.486
24.4811     -1.758    -6.581
24.8372     -1.758    -6.676
25.1984     -1.759    -6.773
25.5649     -1.759    -6.872
25.9368     -1.760    -6.972
26.3141     -1.761    -7.073
26.6968     -1.761    -7.176
27.0851     -1.762    -7.280
27.4791     -1.762    -7.386
27.8788     -1.763    -7.493
28.2843     -1.764    -7.602
28.6957     -1.765    -7.712
29.1131     -1.765    -7.824
29.5365     -1.766    -7.938
29.9661     -1.767    -8.053
30.4020     -1.768    -8.170
30.8442     -1.768    -8.289
31.2929     -1.769    -8.409
31.7480     -1.770    -8.531
32.2098     -1.771    -8.655
32.6783     -1.772    -8.780
33.1536     -1.773    -8.908
33.6359     -1.774    -9.037
34.1251     -1.775    -9.168
34.6215     -1.776    -9.301
35.1250     -1.777    -9.436
35.6359     -1.778    -9.573
36.1543     -1.779    -9.711
36.6802     -1.780    -9.852
37.2137     -1.781    -9.995
37.7550     -1.783   -10.140
38.3041     -1.784   -10.287
38.8613     -1.785   -10.436
39.4265     -1.786   -10.587
40.0000     -1.788   -10.740
40.5818     -1.789   -10.896
41.1721     -1.791   -11.053
41.7710     -1.792   -11.213
42.3785     -1.794   -11.376
42.9949     -1.795   -11.540
43.6203     -1.797   -11.707
44.2548     -1.799   -11.877
44.8985     -1.800   -12.048
45.5515     -1.802   -12.223
46.2141     -1.804   -12.399
46.8863     -1.806   -12.578
47.5683     -1.808   -12.760
48.2602     -1.810   -12.945
48.9621     -1.812   -13.132
49.6743     -1.814   -13.321
50.3968     -1.816   -13.513
51.1299     -1.818   -13.708
51.8736     -1.820   -13.906
52.6281     -1.823   -14.107
53.3936     -1.825   -14.310
54.1702     -1.828   -14.517
54.9581     -1.830   -14.726
55.7575     -1.833   -14.938
56.5685     -1.836   -15.153
57.3914     -1.838   -15.371
58.2261     -1.841   -15.593
59.0730     -1.844   -15.817
59.9323     -1.847   -16.045
60.8040     -1.850   -16.275
61.6884     -1.853   -16.509
62.5857     -1.857   -16.747
63.4960     -1.860   -16.987
64.4196     -1.864   -17.231
65.3566     -1.867   -17.478
66.3073     -1.871   -17.729
67.2717     -1.875   -17.983
68.2502     -1.879   -18.241
69.2429     -1.883   -18.502
70.2501     -1.887   -18.767
71.2719     -1.891   -19.036
72.3086     -1.895   -19.308
73.3603     -1.900   -19.585
74.4274     -1.904   -19.864
75.5099     -1.909   -20.148
76.6083     -1.914   -20.436
77.7226     -1.919   -20.727
78.8531     -1.924   -21.023
80.0000     -1.929   -21.323
81.1636     -1.935   -21.626
82.3442     -1.940   -21.934
83.5419     -1.946   -22.246
84.7570     -1.952   -22.563
85.9899     -1.958   -22.883
87.2406     -1.964   -23.208
88.5096     -1.971   -23.537
89.7970     -1.977   -23.871
91.1031     -1.984   -24.209
92.4282     -1.991   -24.551
93.7726     -1.998   -24.899
95.1366     -2.005   -25.250
96.5204     -2.013   -25.607
97.9243     -2.020   -25.968
99.3486     -2.028   -26.334
100.794     -2.037   -26.705
102.260     -2.045   -27.080
103.747     -2.053   -27.461
105.256     -2.062   -27.846
106.787     -2.071   -28.236
108.340     -2.081   -28.632
109.916     -2.090   -29.032
111.515     -2.100   -29.438
113.137     -2.110   -29.849
114.783     -2.120   -30.265
116.452     -2.131   -30.686
118.146     -2.142   -31.113
119.865     -2.153   -31.545
121.608     -2.164   -31.982
123.377     -2.176   -32.425
125.171     -2.188   -32.873
126.992     -2.200   -33.327
128.839     -2.213   -33.786
130.713     -2.226   -34.251
132.615     -2.239   -34.721
134.543     -2.253   -35.198
136.500     -2.267   -35.679
138.486     -2.281   -36.167
140.500     -2.296   -36.660
142.544     -2.311   -37.159
144.617     -2.326   -37.664
146.721     -2.342   -38.175
148.855     -2.358   -38.692
151.020     -2.374   -39.214
153.217     -2.391   -39.743
155.445     -2.408   -40.277
157.706     -2.426   -40.817
160.000     -2.444   -41.364
162.327     -2.462   -41.916
164.688     -2.481   -42.474
167.084     -2.500   -43.038
169.514     -2.520   -43.609
171.980     -2.540   -44.185
174.481     -2.560   -44.767
177.019     -2.581   -45.355
179.594     -2.602   -45.950
182.206     -2.624   -46.550
184.856     -2.646   -47.156
187.545     -2.668   -47.769
190.273     -2.691   -48.387
193.041     -2.714   -49.011
195.849     -2.738   -49.642
198.697     -2.762   -50.278
201.587     -2.787   -50.920
204.520     -2.811   -51.568
207.494     -2.837   -52.222
210.512     -2.862   -52.882
213.574     -2.888   -53.548
216.681     -2.915   -54.220
219.833     -2.941   -54.898
223.030     -2.968   -55.581
226.274     -2.995   -56.271
229.565     -3.023   -56.966
232.905     -3.051   -57.667
236.292     -3.079   -58.374
239.729     -3.107   -59.086
243.216     -3.135   -59.805
246.754     -3.164   -60.529
250.343     -3.193   -61.260
253.984     -3.221   -61.996
257.678     -3.250   -62.739
261.426     -3.279   -63.487
265.229     -3.308   -64.242
269.087     -3.336   -65.003
273.001     -3.365   -65.770
276.972     -3.394   -66.544
281.000     -3.422   -67.324
285.088     -3.450   -68.112
289.234     -3.477   -68.906
293.441     -3.505   -69.708
297.709     -3.532   -70.517
302.040     -3.558   -71.334
306.433     -3.584   -72.159
310.890     -3.609   -72.993
315.412     -3.634   -73.835
320.000     -3.657   -74.687
324.655     -3.680   -75.549
329.377     -3.702   -76.422
334.168     -3.724   -77.305
339.028     -3.744   -78.200
343.959     -3.763   -79.107
348.962     -3.781   -80.027
354.038     -3.798   -80.961
359.188     -3.814   -81.910
364.412     -3.829   -82.874
369.713     -3.842   -83.855
375.090     -3.854   -84.853
380.546     -3.865   -85.869
386.081     -3.875   -86.905
391.697     -3.883   -87.961
397.394     -3.890   -89.039
403.175     -3.895   -90.140
409.039     -3.900   -91.264
414.989     -3.903   -92.414
421.025     -3.905   -93.590
427.149     -3.906   -94.794
433.362     -3.906   -96.026
439.665     -3.905   -97.288
446.060     -3.903   -98.582
452.548     -3.901   -99.908
459.131     -3.898  -101.267
465.809     -3.894  -102.661
472.584     -3.891  -104.091
479.458     -3.887  -105.557
486.432     -3.884  -107.061
493.507     -3.880  -108.603
500.686     -3.878  -110.185
507.968     -3.876  -111.807
515.357     -3.875  -113.469
522.853     -3.875  -115.172
530.458     -3.877  -116.917
538.174     -3.880  -118.704
546.002     -3.885  -120.533
553.943     -3.893  -122.403
562.001     -3.903  -124.316
570.175     -3.916  -126.271
578.469     -3.932  -128.268
586.883     -3.952  -130.306
595.419     -3.975  -132.384
604.080     -4.001  -134.502
612.866     -4.033  -136.658
621.780     -4.068  -138.852
630.824     -4.108  -141.083
640.000     -4.153  -143.348
649.309     -4.203  -145.646
658.753     -4.259  -147.976
668.335     -4.319  -150.335
678.056     -4.386  -152.721
687.919     -4.458  -155.131
697.925     -4.537  -157.563
708.077     -4.621  -160.014
718.376     -4.711  -162.481
728.825     -4.806  -164.961
739.426     -4.908  -167.451
750.181     -5.015  -169.946
761.093     -5.127  -172.445
772.163     -5.244  -174.942
783.394     -5.366  -177.436
794.789     -5.491  -179.923
806.349     -5.620   177.600
818.078     -5.750   175.135
829.977     -5.883   172.685
842.050     -6.016   170.248
854.298     -6.148   167.827
866.724     -6.279   165.419
879.330     -6.406   163.023
892.120     -6.530   160.634
905.097     -6.648   158.246
918.262     -6.759   155.852
931.618     -6.863   153.444
945.169     -6.959   151.010
958.917     -7.046   148.540
972.864     -7.123   146.020
987.015     -7.192   143.436
1001.37     -7.252   140.776
1015.94     -7.304   138.026
1030.71     -7.350   135.173
1045.71     -7.390   132.206
1060.92     -7.427   129.115
1076.35     -7.463   125.894
1092.00     -7.499   122.535
1107.89     -7.538   119.036
1124.00     -7.582   115.395
1140.35     -7.634   111.614
1156.94     -7.696   107.695
1173.77     -7.769   103.645
1190.84     -7.856    99.471
1208.16     -7.960    95.181
1225.73     -8.080    90.787
1243.56     -8.220    86.302
1261.65     -8.379    81.740
1280.00     -8.560    77.117
1298.62     -8.762    72.450
1317.51     -8.985    67.757
1336.67     -9.229    63.059
1356.11     -9.494    58.375
1375.84     -9.776    53.725
1395.85    -10.075    49.127
1416.15    -10.387    44.599
1436.75    -10.707    40.152
1457.65    -11.031    35.795
1478.85    -11.353    31.525
1500.36    -11.667    27.331
1522.19    -11.969    23.193
1544.33    -12.252    19.074
1566.79    -12.514    14.930
1589.58    -12.753    10.706
1612.70    -12.968     6.349
1636.16    -13.165     1.802
1659.95    -13.347    -2.983
1684.10    -13.522    -8.044
1708.60    -13.699   -13.403
1733.45    -13.885   -19.070
1758.66    -14.091   -25.041
1784.24    -14.324   -31.300
1810.19    -14.591   -37.819
1836.52    -14.899   -44.562
1863.24    -15.254   -51.483
1890.34    -15.658   -58.534
1917.83    -16.114   -65.660
1945.73    -16.623   -72.797
1974.03    -17.182   -79.884
2002.74    -17.787   -86.858
2031.87    -18.431   -93.664
2061.43    -19.102  -100.258
2091.41    -19.788  -106.619
2121.83    -20.472  -112.763
2152.69    -21.139  -118.753
2184.01    -21.778  -124.694
2215.77    -22.385  -130.730
2248.00    -22.964  -137.019
2280.70    -23.530  -143.703
2313.87    -24.108  -150.891
2347.53    -24.725  -158.634
2381.68    -25.411  -166.933
2416.32    -26.199  -175.746
2451.46    -27.118   175.001
2487.12    -28.203   165.417
2523.30    -29.489   155.627
2560.00    -31.019   145.779
2597.24    -32.856   136.040
2635.01    -35.094   126.617
2673.34    -37.906   117.776
2712.23    -41.678   109.948
2751.68    -47.599   104.123
2791.70    -64.806  -174.482
2832.31    -46.602  -109.473
2873.50    -39.969  -111.283
2915.30    -36.421  -119.660
2957.70    -34.077  -128.957
3000.72    -32.390  -138.378
3044.37    -31.108  -147.653
3088.65    -30.084  -156.699
3133.58    -29.218  -165.560
3179.16    -28.443  -174.390
3225.40    -27.723   176.588
3272.31    -27.048   167.150
3319.91    -26.428   157.143
3368.20    -25.886   146.516
3417.19    -25.446   135.324
3466.89    -25.125   123.707
3517.32    -24.928   111.860
3568.48    -24.851   100.000
3620.39    -24.869    88.321
3673.05    -24.948    76.949
3726.47    -25.041    65.876
3780.67    -25.104    54.912
3835.67    -25.115    43.712
3891.46    -25.088    31.893
3948.06    -25.066    19.172
4005.49    -25.107     5.457
4063.75    -25.270    -9.146
4122.86    -25.599   -24.377
4182.82    -26.116   -39.879
4243.66    -26.822   -55.246
4305.39    -27.685   -70.091
4368.01    -28.639   -84.165
4431.55    -29.600   -97.546
4496.01    -30.503  -110.753
4561.40    -31.357  -124.581
4627.75    -32.260  -139.693
4695.06    -33.362  -156.315
4763.35    -34.826  -174.255
4832.64    -36.807   166.860
4902.93    -39.500   147.209
4974.24    -43.283   125.777
5046.60    -49.448    93.516
5120.00    -84.403  -159.941
5194.47    -49.878   -60.074
5270.03    -44.257   -91.229
5346.68    -41.186  -110.679
5424.45    -38.927  -127.221
5503.35    -36.981  -143.982
5583.40    -35.328  -162.664
5664.61    -34.110   176.591
5747.01    -33.435   154.714
5830.60    -33.317   133.166
5915.41    -33.630   113.594
6001.45    -34.047    97.080
6088.74    -34.128    82.477
6177.30    -33.777    66.351
6267.15    -33.375    46.560
6358.31    -33.326    23.803
6450.80    -33.795     0.042
6544.62    -34.717   -22.739
6639.82    -35.825   -43.426
6736.40    -36.807   -62.946
6834.38    -37.656   -83.836
6933.79    -38.748  -107.459
7034.64    -40.520  -132.900
7136.96    -43.343  -157.874
7240.77    -47.752  -178.594
7346.09    -55.700  -176.316
7452.94    -63.359  -113.827
7561.35    -47.767   -84.847
7671.33    -42.852  -104.999
7782.91    -40.000  -128.412
7896.12    -38.183  -153.424
8010.97    -37.100  -179.161
8127.49    -36.568   155.410
8245.71    -36.342   130.965
8365.65    -36.164   106.915
8487.33    -35.970    81.487
8610.78    -35.976    53.508
8736.03    -36.460    23.620
8863.09    -37.512    -6.250
8992.01    -38.932   -34.517
9122.80    -40.437   -62.124
9255.50    -42.243   -91.713
9390.12    -45.155  -122.894
9526.70    -50.324  -149.368
9665.27    -61.261  -125.583
9805.86    -56.766   -82.659
9948.49    -47.255   -83.805
10093.2    -42.999  -109.963
10240.0    -40.396  -141.847
10388.9    -39.075  -175.898
10540.1    -38.552   151.558
10693.4    -38.136   119.391
10848.9    -38.026    83.680
11006.7    -38.854    46.492
11166.8    -40.312    13.008
11329.2    -41.506   -19.447
11494.0    -43.138   -57.476
11661.2    -46.510   -97.257
11830.8    -52.322  -132.899
12002.9    -71.004   -96.448
12177.5    -54.833   -52.577
12354.6    -48.402   -79.175
12534.3    -44.923  -117.241
12716.6    -43.215  -157.232
12901.6    -42.308   164.169
13089.2    -41.596   124.120
13279.6    -41.483    79.202
13472.8    -42.721    32.465
13668.8    -44.975    -9.289
13867.6    -47.419   -50.395
14069.3    -52.362   -94.852
14273.9    -68.048   -70.268
14481.5    -56.305   -38.470
14692.2    -49.273   -62.747
14905.9    -45.504  -108.202
15122.7    -44.393  -155.425
15342.7    -43.217   160.481
15565.8    -42.993   104.220
15792.2    -45.387    52.330
16021.9    -47.537     8.755
16255.0    -51.620   -39.127
16491.4    -60.341   -48.387
16731.3    -60.991   -41.140
16974.7    -51.836   -50.498
17221.6    -48.867   -98.935
17472.1    -46.763  -142.543
17726.2    -45.630   155.262
17984.0    -47.734   100.097
18245.6    -48.921    48.021
18511.0    -53.435    -8.564
18780.2    -62.155   -18.746
19053.4    -60.497   -12.491
19330.5    -50.877   -41.852
19611.7    -48.681   -98.480
19897.0    -47.441  -153.444
20186.4    -47.852   146.050
20480.0    -49.098    85.342
20777.9    -53.252    24.338
21080.1    -62.789     1.798
21386.7    -59.697    -1.432
21697.8    -52.221   -41.843
22013.4    -49.469  -103.699
22333.6    -49.459  -171.606
22658.4    -50.610   120.995
22988.0    -53.974    62.810
23322.4    -61.828    16.053
23661.6    -62.752    18.149
24005.8    -53.378   -21.447
24355.0    -51.187   -96.042
24709.2    -50.951  -169.801
25068.6    -53.179   111.605
25433.2    -57.571    15.001
25803.2    -86.325    48.407
26178.5    -55.925    64.217
26559.3    -51.833   -31.424
26945.6    -50.615  -124.629
27337.5    -53.897   149.990
27735.2    -59.647    71.388
28138.6    -75.316    78.656
28547.9    -54.966    63.476
28963.1    -52.082   -27.572
29384.4    -51.342  -124.849
29811.8    -54.892   145.036
30245.4    -67.753   107.879
30685.3    -60.561    79.727
31131.7    -56.129    10.102
31584.5    -53.672   -89.497
32043.9    -55.762   179.390
32510.0    -66.051   126.777
32982.8    -61.689    88.698
33462.6    -56.719    14.585
33949.3    -56.201   -98.426
34443.1    -58.737   140.342
34944.1    -85.685   149.019
35452.4    -57.672   132.527
35968.0    -54.040    18.385
36491.2    -55.357   -91.871
37022.0    -63.546  -175.134
37560.5    -63.018   130.498
38106.8    -55.896    45.517
38661.1    -56.352   -71.769
39223.4    -63.147  -165.655
39793.9    -67.234   123.169
