Freq[Hz]     dBSPL  Phase[Deg]
5.00000      1.377     0.330
5.07273      1.377     0.335
5.14651      1.378     0.340
5.22137      1.378     0.345
5.29732      1.378     0.350
5.37437      1.378     0.355
5.45254      1.378     0.361
5.53185      1.378     0.366
5.61231      1.378     0.371
5.69394      1.378     0.377
5.77676      1.378     0.382
5.86079      1.378     0.388
5.94604      1.378     0.393
6.03252      1.378     0.399
6.12027      1.378     0.405
6.20929      1.378     0.411
6.29961      1.378     0.417
6.39124      1.378     0.423
6.48420      1.379     0.429
6.57851      1.379     0.435
6.67420      1.379     0.442
6.77128      1.379     0.448
6.86977      1.379     0.455
6.96969      1.379     0.461
7.07107      1.379     0.468
7.17392      1.379     0.475
7.27827      1.379     0.482
7.38413      1.379     0.489
7.49154      1.380     0.496
7.60050      1.380     0.503
7.71105      1.380     0.511
7.82321      1.380     0.518
7.93701      1.380     0.526
8.05245      1.380     0.533
8.16958      1.380     0.541
8.28841      1.380     0.549
8.40896      1.381     0.557
8.53128      1.381     0.565
8.65537      1.381     0.574
8.78126      1.381     0.582
8.90899      1.381     0.590
9.03857      1.381     0.599
9.17004      1.381     0.608
9.30342      1.382     0.617
9.43874      1.382     0.626
9.57603      1.382     0.635
9.71532      1.382     0.644
9.85663      1.382     0.653
10.0000      1.383     0.663
10.1455      1.383     0.672
10.2930      1.383     0.682
10.4427      1.383     0.692
10.5946      1.383     0.702
10.7487      1.384     0.712
10.9051      1.384     0.723
11.0637      1.384     0.733
11.2246      1.384     0.744
11.3879      1.385     0.755
11.5535      1.385     0.766
11.7216      1.385     0.777
11.8921      1.385     0.788
12.0650      1.386     0.799
12.2405      1.386     0.811
12.4186      1.386     0.823
12.5992      1.387     0.835
12.7825      1.387     0.847
12.9684      1.387     0.859
13.1570      1.388     0.872
13.3484      1.388     0.884
13.5426      1.388     0.897
13.7395      1.389     0.910
13.9394      1.389     0.923
14.1421      1.389     0.936
14.3478      1.390     0.950
14.5565      1.390     0.964
14.7683      1.391     0.978
14.9831      1.391     0.992
15.2010      1.391     1.006
15.4221      1.392     1.020
15.6464      1.392     1.034
15.8740      1.393     1.048
16.1049      1.393     1.063
16.3392      1.394     1.078
16.5768      1.394     1.093
16.8179      1.395     1.108
17.0626      1.396     1.124
17.3107      1.396     1.139
17.5625      1.397     1.155
17.8180      1.397     1.172
18.0771      1.398     1.188
18.3401      1.399     1.204
18.6068      1.399     1.221
18.8775      1.400     1.238
19.1521      1.401     1.256
19.4306      1.401     1.273
19.7133      1.402     1.291
20.0000      1.403     1.309
20.2909      1.404     1.327
20.5860      1.404     1.346
20.8855      1.405     1.364
21.1893      1.406     1.384
21.4975      1.407     1.403
21.8102      1.408     1.422
22.1274      1.409     1.442
22.4492      1.410     1.462
22.7758      1.411     1.482
23.1071      1.412     1.503
23.4432      1.413     1.524
23.7841      1.414     1.545
24.1301      1.415     1.567
24.4811      1.416     1.588
24.8372      1.417     1.610
25.1984      1.419     1.633
25.5649      1.420     1.655
25.9368      1.421     1.678
26.3141      1.422     1.701
26.6968      1.424     1.725
27.0851      1.425     1.749
27.4791      1.427     1.773
27.8788      1.428     1.797
28.2843      1.430     1.822
28.6957      1.431     1.847
29.1131      1.433     1.872
29.5365      1.434     1.898
29.9661      1.436     1.924
30.4020      1.438     1.951
30.8442      1.440     1.977
31.2929      1.442     2.004
31.7480      1.443     2.031
32.2098      1.445     2.059
32.6783      1.447     2.087
33.1536      1.449     2.116
33.6359      1.452     2.144
34.1251      1.454     2.173
34.6215      1.456     2.203
35.1250      1.458     2.233
35.6359      1.461     2.263
36.1543      1.463     2.293
36.6802      1.466     2.324
37.2137      1.468     2.355
37.7550      1.471     2.387
38.3041      1.474     2.419
38.8613      1.476     2.451
39.4265      1.479     2.483
40.0000      1.482     2.516
40.5818      1.485     2.550
41.1721      1.489     2.583
41.7710      1.492     2.618
42.3785      1.495     2.652
42.9949      1.499     2.687
43.6203      1.502     2.722
44.2548      1.506     2.757
44.8985      1.509     2.793
45.5515      1.513     2.829
46.2141      1.517     2.866
46.8863      1.521     2.903
47.5683      1.525     2.940
48.2602      1.530     2.978
48.9621      1.534     3.016
49.6743      1.538     3.054
50.3968      1.543     3.093
51.1299      1.548     3.132
51.8736      1.553     3.171
52.6281      1.558     3.211
53.3936      1.563     3.251
54.1702      1.568     3.291
54.9581      1.574     3.331
55.7575      1.579     3.372
56.5685      1.585     3.414
57.3914      1.591     3.455
58.2261      1.597     3.497
59.0730      1.603     3.539
59.9323      1.609     3.581
60.8040      1.616     3.624
61.6884      1.623     3.666
62.5857      1.630     3.709
63.4960      1.637     3.753
64.4196      1.644     3.796
65.3566      1.651     3.840
66.3073      1.659     3.883
67.2717      1.667     3.927
68.2502      1.675     3.971
69.2429      1.683     4.015
70.2501      1.692     4.060
71.2719      1.701     4.104
72.3086      1.710     4.148
73.3603      1.719     4.193
74.4274      1.728     4.237
75.5099      1.738     4.282
76.6083      1.748     4.326
77.7226      1.758     4.371
78.8531      1.768     4.415
80.0000      1.779     4.459
81.1636      1.790     4.503
82.3442      1.801     4.547
83.5419      1.813     4.590
84.7570      1.825     4.634
85.9899      1.837     4.677
87.2406      1.849     4.720
88.5096      1.862     4.762
89.7970      1.875     4.804
91.1031      1.888     4.846
92.4282      1.902     4.887
93.7726      1.916     4.927
95.1366      1.930     4.967
96.5204      1.944     5.007
97.9243      1.959     5.046
99.3486      1.975     5.083
100.794      1.990     5.121
102.260      2.006     5.157
103.747      2.023     5.193
105.256      2.040     5.227
106.787      2.057     5.261
108.340      2.074     5.293
109.916      2.092     5.324
111.515      2.110     5.354
113.137      2.129     5.383
114.783      2.148     5.411
116.452      2.168     5.437
118.146      2.188     5.461
119.865      2.208     5.484
121.608      2.229     5.505
123.377      2.250     5.524
125.171      2.272     5.542
126.992      2.294     5.558
128.839      2.316     5.571
130.713      2.339     5.583
132.615      2.363     5.592
134.543      2.386     5.599
136.500      2.411     5.603
138.486      2.436     5.605
140.500      2.461     5.605
142.544      2.486     5.601
144.617      2.513     5.595
146.721      2.539     5.585
148.855      2.566     5.573
151.020      2.594     5.557
153.217      2.622     5.538
155.445      2.650     5.516
157.706      2.679     5.490
160.000      2.709     5.460
162.327      2.738     5.427
164.688      2.769     5.389
167.084      2.799     5.348
169.514      2.831     5.302
171.980      2.862     5.252
174.481      2.894     5.197
177.019      2.927     5.138
179.594      2.960     5.074
182.206      2.993     5.005
184.856      3.027     4.931
187.545      3.061     4.852
190.273      3.096     4.767
193.041      3.131     4.677
195.849      3.167     4.581
198.697      3.202     4.479
201.587      3.239     4.372
204.520      3.275     4.258
207.494      3.312     4.138
210.512      3.349     4.011
213.574      3.387     3.878
216.681      3.425     3.739
219.833      3.463     3.592
223.030      3.501     3.439
226.274      3.540     3.278
229.565      3.579     3.110
232.905      3.618     2.934
236.292      3.657     2.751
239.729      3.697     2.560
243.216      3.736     2.362
246.754      3.776     2.155
250.343      3.816     1.940
253.984      3.856     1.717
257.678      3.896     1.485
261.426      3.936     1.245
265.229      3.976     0.997
269.087      4.016     0.739
273.001      4.056     0.472
276.972      4.096     0.197
281.000      4.136    -0.088
285.088      4.176    -0.382
289.234      4.215    -0.685
293.441      4.255    -0.998
297.709      4.294    -1.320
302.040      4.333    -1.652
306.433      4.371    -1.993
310.890      4.409    -2.344
315.412      4.447    -2.705
320.000      4.485    -3.076
324.655      4.521    -3.457
329.377      4.558    -3.848
334.168      4.594    -4.248
339.028      4.629    -4.659
343.959      4.664    -5.079
348.962      4.698    -5.510
354.038      4.731    -5.950
359.188      4.764    -6.401
364.412      4.796    -6.861
369.713      4.827    -7.331
375.090      4.857    -7.811
380.546      4.886    -8.300
386.081      4.914    -8.800
391.697      4.941    -9.308
397.394      4.967    -9.826
403.175      4.992   -10.354
409.039      5.016   -10.890
414.989      5.039   -11.435
421.025      5.060   -11.989
427.149      5.081   -12.552
433.362      5.100   -13.122
439.665      5.117   -13.701
446.060      5.133   -14.287
452.548      5.148   -14.881
459.131      5.161   -15.482
465.809      5.173   -16.090
472.584      5.183   -16.704
479.458      5.192   -17.324
486.432      5.199   -17.950
493.507      5.205   -18.582
500.686      5.208   -19.218
507.968      5.211   -19.858
515.357      5.211   -20.502
522.853      5.211   -21.150
530.458      5.208   -21.800
538.174      5.204   -22.453
546.002      5.198   -23.108
553.943      5.191   -23.763
562.001      5.182   -24.419
570.175      5.171   -25.076
578.469      5.160   -25.732
586.883      5.146   -26.387
595.419      5.132   -27.040
604.080      5.116   -27.691
612.866      5.099   -28.339
621.780      5.081   -28.984
630.824      5.063   -29.626
640.000      5.043   -30.264
649.309      5.023   -30.898
658.753      5.003   -31.527
668.335      4.982   -32.152
678.056      4.961   -32.773
687.919      4.940   -33.389
697.925      4.919   -34.001
708.077      4.899   -34.609
718.376      4.879   -35.214
728.825      4.860   -35.817
739.426      4.843   -36.417
750.181      4.826   -37.018
761.093      4.811   -37.618
772.163      4.798   -38.221
783.394      4.787   -38.828
794.789      4.777   -39.441
806.349      4.769   -40.061
818.078      4.764   -40.691
829.977      4.761   -41.333
842.050      4.760   -41.990
854.298      4.761   -42.665
866.724      4.764   -43.359
879.330      4.769   -44.075
892.120      4.776   -44.816
905.097      4.785   -45.585
918.262      4.795   -46.385
931.618      4.805   -47.216
945.169      4.817   -48.082
958.917      4.829   -48.984
972.864      4.840   -49.925
987.015      4.851   -50.906
1001.37      4.861   -51.927
1015.94      4.869   -52.989
1030.71      4.875   -54.093
1045.71      4.878   -55.239
1060.92      4.877   -56.427
1076.35      4.873   -57.655
1092.00      4.864   -58.922
1107.89      4.849   -60.227
1124.00      4.830   -61.568
1140.35      4.803   -62.943
1156.94      4.771   -64.347
1173.77      4.730   -65.778
1190.84      4.683   -67.231
1208.16      4.627   -68.705
1225.73      4.563   -70.192
1243.56      4.491   -71.688
1261.65      4.409   -73.188
1280.00      4.320   -74.686
1298.62      4.221   -76.178
1317.51      4.114   -77.655
1336.67      3.999   -79.113
1356.11      3.876   -80.544
1375.84      3.747   -81.945
1395.85      3.611   -83.308
1416.15      3.469   -84.629
1436.75      3.323   -85.904
1457.65      3.175   -87.129
1478.85      3.025   -88.305
1500.36      2.875   -89.429
1522.19      2.726   -90.504
1544.33      2.581   -91.535
1566.79      2.440   -92.527
1589.58      2.306   -93.490
1612.70      2.178   -94.434
1636.16      2.059   -95.369
1659.95      1.948   -96.311
1684.10      1.845   -97.275
1708.60      1.750   -98.273
1733.45      1.662   -99.319
1758.66      1.579  -100.424
1784.24      1.501  -101.600
1810.19      1.424  -102.854
1836.52      1.348  -104.190
1863.24      1.269  -105.608
1890.34      1.186  -107.109
1917.83      1.096  -108.691
1945.73      0.998  -110.344
1974.03      0.890  -112.062
2002.74      0.772  -113.834
2031.87      0.641  -115.652
2061.43      0.499  -117.502
2091.41      0.344  -119.374
2121.83      0.177  -121.257
2152.69     -0.002  -123.142
2184.01     -0.190  -125.024
2215.77     -0.388  -126.896
2248.00     -0.594  -128.755
2280.70     -0.806  -130.605
2313.87     -1.024  -132.452
2347.53     -1.245  -134.300
2381.68     -1.471  -136.161
2416.32     -1.700  -138.046
2451.46     -1.934  -139.971
2487.12     -2.173  -141.944
2523.30     -2.421  -143.975
2560.00     -2.678  -146.071
2597.24     -2.948  -148.238
2635.01     -3.235  -150.470
2673.34     -3.540  -152.761
2712.23     -3.866  -155.099
2751.68     -4.217  -157.472
2791.70     -4.592  -159.858
2832.31     -4.940  -162.129
2873.50     -5.293  -164.465
2915.30     -5.664  -166.910
2957.70     -6.056  -169.470
3000.72     -6.477  -172.146
3044.37     -6.932  -174.932
3088.65     -7.427  -177.817
3133.58     -7.969   179.225
3179.16     -8.561   176.221
3225.40     -9.209   173.200
3272.31     -9.915   170.187
3319.91    -10.681   167.206
3368.20    -11.509   164.258
3417.19    -12.403   161.323
3466.89    -13.368   158.346
3517.32    -14.419   155.241
3568.48    -15.580   151.873
3620.39    -16.895   148.055
3673.05    -18.432   143.529
3726.47    -20.310   137.883
3780.67    -22.724   130.280
3835.67    -26.038   118.417
3891.46    -30.740    93.331
3948.06    -33.678    24.964
4005.49    -29.715   -20.268
4063.75    -25.241   -37.907
4122.86    -22.417   -48.465
4182.82    -20.438   -56.320
4243.66    -18.985   -62.746
4305.39    -17.884   -68.187
4368.01    -17.021   -72.847
4431.55    -16.315   -76.879
4496.01    -15.705   -80.460
4561.40    -15.151   -83.794
4627.75    -14.636   -87.095
4695.06    -14.159   -90.533
4763.35    -13.730   -94.199
4832.64    -13.363   -98.094
4902.93    -13.066  -102.157
4974.24    -12.840  -106.301
5046.60    -12.676  -110.443
5120.00    -12.561  -114.549
5194.47    -12.457  -118.991
5270.03    -12.420  -123.505
5346.68    -12.448  -127.993
5424.45    -12.528  -132.393
5503.35    -12.644  -136.708
5583.40    -12.781  -141.015
5664.61    -12.936  -145.461
5747.01    -13.121  -150.192
5830.60    -13.362  -155.286
5915.41    -13.691  -160.715
6001.45    -14.134  -166.349
6088.74    -14.703  -171.973
6177.30    -15.388  -177.383
6267.15    -16.163   177.523
6358.31    -16.995   172.652
6450.80    -17.872   167.681
6544.62    -18.828   162.155
6639.82    -19.953   155.699
6736.40    -21.381   148.146
6834.38    -23.282   139.481
6933.79    -25.887   129.550
7034.64    -29.630   117.016
7136.96    -35.703    91.895
7240.77    -56.853   -24.135
7346.09    -36.073   -31.322
7452.94    -30.418   -52.244
7561.35    -27.014   -63.029
7671.33    -24.710   -71.349
7782.91    -22.978   -78.921
7896.12    -21.632   -86.473
8010.97    -20.610   -94.179
8127.49    -19.877  -101.845
8245.71    -19.373  -109.197
8365.65    -19.025  -116.172
8487.33    -18.778  -122.994
8610.78    -18.626  -129.956
8736.03    -18.595  -137.192
8863.09    -18.713  -144.622
8992.01    -18.990  -152.088
9122.80    -19.423  -159.481
9255.50    -20.012  -166.718
9390.12    -20.749  -173.783
9526.70    -21.640   179.157
9665.27    -22.749   171.852
9805.86    -24.219   164.554
9948.49    -26.118   157.310
10093.2    -28.802   149.985
10240.0    -33.157   145.379
10388.9    -41.472   166.612
10540.1    -46.131  -127.185
10693.4    -36.067   -88.693
10848.9    -31.446   -86.407
11006.7    -28.190   -91.430
11166.8    -26.018  -100.367
11329.2    -24.690  -109.979
11494.0    -23.838  -118.908
11661.2    -23.232  -127.702
11830.8    -22.881  -136.909
12002.9    -22.805  -146.150
12177.5    -22.944  -155.906
12354.6    -23.365  -165.589
12534.3    -24.023  -175.206
12716.6    -25.005   174.734
12901.6    -26.513   164.667
13089.2    -28.701   155.972
13279.6    -31.709   150.328
13472.8    -35.973   150.330
13668.8    -44.508  -179.210
13867.6    -44.370  -128.580
14069.3    -35.311  -100.983
14273.9    -31.337  -107.187
14481.5    -28.940  -116.497
14692.2    -27.457  -126.933
14905.9    -26.451  -137.764
15122.7    -25.908  -150.099
15342.7    -25.953  -162.498
15565.8    -26.318  -174.139
15792.2    -27.025   173.124
16021.9    -28.441   160.103
16255.0    -30.516   148.584
16491.4    -33.435   136.725
16731.3    -38.836   124.837
16974.7    -55.981  -160.567
17221.6    -40.810  -104.663
17472.1    -35.008  -107.914
17726.2    -31.777  -118.709
17984.0    -29.858  -132.477
18245.6    -28.902  -146.501
18511.0    -28.504  -160.466
18780.2    -28.686  -175.133
19053.4    -29.539   170.228
19330.5    -31.132   155.915
19611.7    -33.812   141.651
19897.0    -38.887   128.456
20186.4    -56.217  -150.929
20480.0    -41.431  -125.033
20777.9    -36.204  -124.239
21080.1    -32.990  -134.376
21386.7    -31.335  -149.644
21697.8    -30.735  -164.539
22013.4    -30.577   179.116
22333.6    -31.656   161.452
22658.4    -33.747   146.031
22988.0    -37.909   133.646
23322.4    -47.008   155.413
23661.6    -47.430  -156.402
24005.8    -38.010  -137.376
24355.0    -34.626  -151.691
24709.2    -33.268  -166.643
25068.6    -32.570   178.027
25433.2    -32.847   158.909
25803.2    -34.783   140.539
26178.5    -38.720   126.546
26559.3    -48.646   147.455
26945.6    -46.175  -167.688
27337.5    -38.872  -154.901
27735.2    -35.524  -168.429
28138.6    -34.062   172.450
28547.9    -34.129   151.211
28963.1    -35.874   130.876
29384.4    -40.247   115.882
29811.8    -48.579   141.341
30245.4    -46.952   179.707
30685.3    -39.171  -173.358
31131.7    -36.272   170.109
31584.5    -35.459   145.229
32043.9    -36.349   124.282
32510.0    -39.590   102.728
32982.8    -47.774   110.816
33462.6    -49.948   147.807
33949.3    -40.393   165.002
34443.1    -36.996   137.187
34944.1    -36.710   108.290
35452.4    -38.566    74.164
35968.0    -43.725    37.028
36491.2    -64.064    92.663
37022.0    -43.362  -172.695
37560.5    -38.894   138.954
38106.8    -37.759    98.022
38661.1    -39.586    55.799
39223.4    -44.808    14.645
39793.9    -59.988    20.964
