Freq[Hz]     dBSPL  Phase[Deg]
5.00000      1.796     0.875
5.07273      1.796     0.887
5.14651      1.796     0.900
5.22137      1.796     0.913
5.29732      1.796     0.927
5.37437      1.796     0.940
5.45254      1.796     0.954
5.53185      1.796     0.968
5.61231      1.797     0.982
5.69394      1.797     0.996
5.77676      1.797     1.011
5.86079      1.797     1.025
5.94604      1.797     1.040
6.03252      1.797     1.056
6.12027      1.797     1.071
6.20929      1.798     1.087
6.29961      1.798     1.102
6.39124      1.798     1.118
6.48420      1.798     1.135
6.57851      1.798     1.151
6.67420      1.798     1.168
6.77128      1.799     1.185
6.86977      1.799     1.202
6.96969      1.799     1.220
7.07107      1.799     1.237
7.17392      1.799     1.255
7.27827      1.800     1.274
7.38413      1.800     1.292
7.49154      1.800     1.311
7.60050      1.800     1.330
7.71105      1.801     1.349
7.82321      1.801     1.369
7.93701      1.801     1.389
8.05245      1.801     1.409
8.16958      1.802     1.430
8.28841      1.802     1.450
8.40896      1.802     1.472
8.53128      1.802     1.493
8.65537      1.803     1.515
8.78126      1.803     1.537
8.90899      1.803     1.559
9.03857      1.804     1.581
9.17004      1.804     1.604
9.30342      1.804     1.628
9.43874      1.805     1.651
9.57603      1.805     1.675
9.71532      1.805     1.700
9.85663      1.806     1.724
10.0000      1.806     1.749
10.1455      1.807     1.775
10.2930      1.807     1.800
10.4427      1.808     1.826
10.5946      1.808     1.853
10.7487      1.808     1.880
10.9051      1.809     1.907
11.0637      1.809     1.935
11.2246      1.810     1.963
11.3879      1.810     1.991
11.5535      1.811     2.020
11.7216      1.812     2.049
11.8921      1.812     2.079
12.0650      1.813     2.109
12.2405      1.813     2.139
12.4186      1.814     2.170
12.5992      1.815     2.202
12.7825      1.815     2.233
12.9684      1.816     2.266
13.1570      1.817     2.298
13.3484      1.817     2.332
13.5426      1.818     2.365
13.7395      1.819     2.399
13.9394      1.820     2.434
14.1421      1.820     2.469
14.3478      1.821     2.505
14.5565      1.822     2.541
14.7683      1.823     2.577
14.9831      1.824     2.614
15.2010      1.825     2.652
15.4221      1.826     2.689
15.6464      1.827     2.727
15.8740      1.828     2.766
16.1049      1.829     2.805
16.3392      1.830     2.845
16.5768      1.831     2.886
16.8179      1.832     2.927
17.0626      1.833     2.968
17.3107      1.835     3.010
17.5625      1.836     3.053
17.8180      1.837     3.096
18.0771      1.838     3.140
18.3401      1.840     3.184
18.6068      1.841     3.229
18.8775      1.842     3.275
19.1521      1.844     3.322
19.4306      1.845     3.368
19.7133      1.847     3.416
20.0000      1.849     3.464
20.2909      1.850     3.513
20.5860      1.852     3.563
20.8855      1.854     3.613
21.1893      1.855     3.664
21.4975      1.857     3.716
21.8102      1.859     3.768
22.1274      1.861     3.821
22.4492      1.863     3.875
22.7758      1.865     3.929
23.1071      1.867     3.984
23.4432      1.869     4.040
23.7841      1.872     4.097
24.1301      1.874     4.154
24.4811      1.876     4.212
24.8372      1.879     4.271
25.1984      1.881     4.331
25.5649      1.884     4.391
25.9368      1.886     4.453
26.3141      1.889     4.515
26.6968      1.892     4.578
27.0851      1.895     4.641
27.4791      1.898     4.706
27.8788      1.901     4.771
28.2843      1.904     4.837
28.6957      1.907     4.904
29.1131      1.910     4.972
29.5365      1.914     5.041
29.9661      1.917     5.110
30.4020      1.921     5.181
30.8442      1.925     5.252
31.2929      1.928     5.324
31.7480      1.932     5.397
32.2098      1.936     5.471
32.6783      1.940     5.546
33.1536      1.945     5.622
33.6359      1.949     5.699
34.1251      1.953     5.776
34.6215      1.958     5.855
35.1250      1.963     5.934
35.6359      1.968     6.015
36.1543      1.973     6.096
36.6802      1.978     6.179
37.2137      1.983     6.262
37.7550      1.988     6.346
38.3041      1.994     6.431
38.8613      2.000     6.517
39.4265      2.006     6.604
40.0000      2.012     6.692
40.5818      2.018     6.781
41.1721      2.024     6.871
41.7710      2.031     6.962
42.3785      2.037     7.054
42.9949      2.044     7.147
43.6203      2.051     7.240
44.2548      2.058     7.335
44.8985      2.066     7.431
45.5515      2.074     7.528
46.2141      2.081     7.625
46.8863      2.089     7.724
47.5683      2.098     7.823
48.2602      2.106     7.924
48.9621      2.115     8.025
49.6743      2.124     8.127
50.3968      2.133     8.230
51.1299      2.142     8.335
51.8736      2.152     8.440
52.6281      2.162     8.545
53.3936      2.172     8.652
54.1702      2.183     8.760
54.9581      2.193     8.868
55.7575      2.204     8.977
56.5685      2.215     9.088
57.3914      2.227     9.199
58.2261      2.239     9.310
59.0730      2.251     9.423
59.9323      2.263     9.536
60.8040      2.276     9.650
61.6884      2.289     9.764
62.5857      2.302     9.880
63.4960      2.316     9.996
64.4196      2.330    10.112
65.3566      2.344    10.229
66.3073      2.359    10.347
67.2717      2.374    10.465
68.2502      2.390    10.584
69.2429      2.405    10.703
70.2501      2.421    10.823
71.2719      2.438    10.943
72.3086      2.455    11.063
73.3603      2.472    11.184
74.4274      2.490    11.305
75.5099      2.508    11.426
76.6083      2.526    11.547
77.7226      2.545    11.669
78.8531      2.564    11.790
80.0000      2.584    11.912
81.1636      2.604    12.033
82.3442      2.625    12.154
83.5419      2.646    12.276
84.7570      2.667    12.397
85.9899      2.689    12.518
87.2406      2.712    12.638
88.5096      2.735    12.758
89.7970      2.758    12.877
91.1031      2.782    12.996
92.4282      2.806    13.115
93.7726      2.831    13.232
95.1366      2.856    13.349
96.5204      2.882    13.465
97.9243      2.908    13.580
99.3486      2.935    13.695
100.794      2.962    13.807
102.260      2.990    13.919
103.747      3.018    14.030
105.256      3.047    14.139
106.787      3.076    14.247
108.340      3.106    14.353
109.916      3.136    14.457
111.515      3.167    14.560
113.137      3.198    14.661
114.783      3.230    14.760
116.452      3.262    14.857
118.146      3.295    14.952
119.865      3.328    15.044
121.608      3.362    15.134
123.377      3.396    15.222
125.171      3.431    15.307
126.992      3.466    15.389
128.839      3.502    15.469
130.713      3.539    15.546
132.615      3.575    15.619
134.543      3.613    15.690
136.500      3.650    15.757
138.486      3.688    15.821
140.500      3.727    15.881
142.544      3.766    15.938
144.617      3.806    15.991
146.721      3.846    16.040
148.855      3.886    16.086
151.020      3.927    16.127
153.217      3.968    16.164
155.445      4.009    16.198
157.706      4.051    16.226
160.000      4.094    16.250
162.327      4.136    16.269
164.688      4.179    16.284
167.084      4.222    16.294
169.514      4.266    16.300
171.980      4.310    16.300
174.481      4.354    16.295
177.019      4.398    16.285
179.594      4.443    16.270
182.206      4.487    16.249
184.856      4.532    16.223
187.545      4.577    16.192
190.273      4.623    16.155
193.041      4.668    16.112
195.849      4.713    16.064
198.697      4.759    16.010
201.587      4.805    15.950
204.520      4.850    15.884
207.494      4.896    15.812
210.512      4.941    15.735
213.574      4.987    15.651
216.681      5.032    15.562
219.833      5.078    15.466
223.030      5.123    15.365
226.274      5.168    15.258
229.565      5.213    15.144
232.905      5.257    15.025
236.292      5.302    14.899
239.729      5.346    14.768
243.216      5.390    14.631
246.754      5.433    14.488
250.343      5.476    14.339
253.984      5.519    14.184
257.678      5.562    14.024
261.426      5.604    13.858
265.229      5.645    13.687
269.087      5.686    13.510
273.001      5.726    13.328
276.972      5.766    13.141
281.000      5.806    12.949
285.088      5.845    12.753
289.234      5.883    12.551
293.441      5.920    12.345
297.709      5.957    12.135
302.040      5.994    11.920
306.433      6.029    11.702
310.890      6.064    11.480
315.412      6.098    11.254
320.000      6.132    11.025
324.655      6.165    10.793
329.377      6.197    10.558
334.168      6.228    10.321
339.028      6.259    10.081
343.959      6.289     9.840
348.962      6.318     9.596
354.038      6.346     9.351
359.188      6.374     9.104
364.412      6.401     8.856
369.713      6.428     8.608
375.090      6.454     8.359
380.546      6.479     8.110
386.081      6.504     7.860
391.697      6.529     7.610
397.394      6.553     7.361
403.175      6.576     7.112
409.039      6.599     6.863
414.989      6.622     6.615
421.025      6.645     6.367
427.149      6.668     6.120
433.362      6.690     5.874
439.665      6.713     5.627
446.060      6.735     5.382
452.548      6.758     5.135
459.131      6.781     4.889
465.809      6.804     4.642
472.584      6.828     4.393
479.458      6.852     4.144
486.432      6.877     3.892
493.507      6.902     3.637
500.686      6.928     3.378
507.968      6.954     3.116
515.357      6.981     2.848
522.853      7.009     2.574
530.458      7.038     2.292
538.174      7.067     2.002
546.002      7.097     1.703
553.943      7.127     1.394
562.001      7.159     1.073
570.175      7.190     0.739
578.469      7.222     0.391
586.883      7.254     0.027
595.419      7.287    -0.352
604.080      7.319    -0.748
612.866      7.351    -1.163
621.780      7.382    -1.597
630.824      7.413    -2.051
640.000      7.442    -2.525
649.309      7.471    -3.020
658.753      7.497    -3.536
668.335      7.522    -4.073
678.056      7.544    -4.632
687.919      7.564    -5.212
697.925      7.580    -5.811
708.077      7.594    -6.430
718.376      7.603    -7.067
728.825      7.608    -7.721
739.426      7.609    -8.391
750.181      7.605    -9.073
761.093      7.596    -9.766
772.163      7.581   -10.467
783.394      7.561   -11.173
794.789      7.535   -11.881
806.349      7.502   -12.588
818.078      7.464   -13.288
829.977      7.418   -13.978
842.050      7.367   -14.655
854.298      7.309   -15.312
866.724      7.245   -15.945
879.330      7.174   -16.548
892.120      7.098   -17.117
905.097      7.018   -17.648
918.262      6.932   -18.134
931.618      6.843   -18.572
945.169      6.751   -18.957
958.917      6.657   -19.287
972.864      6.562   -19.560
987.015      6.467   -19.774
1001.37      6.375   -19.929
1015.94      6.285   -20.028
1030.71      6.200   -20.072
1045.71      6.120   -20.070
1060.92      6.047   -20.027
1076.35      5.982   -19.950
1092.00      5.925   -19.849
1107.89      5.876   -19.736
1124.00      5.836   -19.620
1140.35      5.804   -19.512
1156.94      5.779   -19.422
1173.77      5.761   -19.356
1190.84      5.747   -19.323
1208.16      5.738   -19.326
1225.73      5.730   -19.367
1243.56      5.723   -19.445
1261.65      5.715   -19.555
1280.00      5.705   -19.693
1298.62      5.692   -19.851
1317.51      5.675   -20.020
1336.67      5.653   -20.187
1356.11      5.628   -20.343
1375.84      5.600   -20.478
1395.85      5.570   -20.582
1416.15      5.539   -20.647
1436.75      5.510   -20.669
1457.65      5.485   -20.647
1478.85      5.465   -20.587
1500.36      5.454   -20.496
1522.19      5.453   -20.387
1544.33      5.464   -20.276
1566.79      5.486   -20.183
1589.58      5.520   -20.130
1612.70      5.564   -20.134
1636.16      5.616   -20.214
1659.95      5.674   -20.381
1684.10      5.734   -20.645
1708.60      5.794   -21.006
1733.45      5.848   -21.460
1758.66      5.895   -21.996
1784.24      5.933   -22.600
1810.19      5.958   -23.253
1836.52      5.971   -23.934
1863.24      5.970   -24.620
1890.34      5.958   -25.290
1917.83      5.935   -25.929
1945.73      5.905   -26.520
1974.03      5.869   -27.055
2002.74      5.831   -27.530
2031.87      5.794   -27.953
2061.43      5.761   -28.333
2091.41      5.732   -28.683
2121.83      5.710   -29.021
2152.69      5.692   -29.365
2184.01      5.679   -29.728
2215.77      5.668   -30.116
2248.00      5.657   -30.532
2280.70      5.644   -30.970
2313.87      5.628   -31.424
2347.53      5.609   -31.879
2381.68      5.586   -32.321
2416.32      5.563   -32.743
2451.46      5.539   -33.141
2487.12      5.519   -33.516
2523.30      5.503   -33.878
2560.00      5.493   -34.240
2597.24      5.488   -34.622
2635.01      5.489   -35.036
2673.34      5.492   -35.494
2712.23      5.495   -35.998
2751.68      5.496   -36.549
2791.70      5.494   -37.134
2832.31      5.475   -37.623
2873.50      5.456   -38.099
2915.30      5.441   -38.590
2957.70      5.427   -39.095
3000.72      5.413   -39.611
3044.37      5.399   -40.130
3088.65      5.386   -40.651
3133.58      5.377   -41.169
3179.16      5.372   -41.692
3225.40      5.373   -42.238
3272.31      5.380   -42.831
3319.91      5.390   -43.492
3368.20      5.401   -44.235
3417.19      5.406   -45.061
3466.89      5.401   -45.957
3517.32      5.383   -46.890
3568.48      5.352   -47.826
3620.39      5.309   -48.735
3673.05      5.258   -49.596
3726.47      5.204   -50.402
3780.67      5.151   -51.165
3835.67      5.099   -51.910
3891.46      5.049   -52.650
3948.06      4.998   -53.389
4005.49      4.945   -54.117
4063.75      4.889   -54.816
4122.86      4.835   -55.468
4182.82      4.787   -56.078
4243.66      4.750   -56.674
4305.39      4.724   -57.299
4368.01      4.707   -57.991
4431.55      4.692   -58.769
4496.01      4.672   -59.625
4561.40      4.644   -60.522
4627.75      4.610   -61.426
4695.06      4.573   -62.325
4763.35      4.535   -63.227
4832.64      4.499   -64.153
4902.93      4.460   -65.117
4974.24      4.417   -66.109
5046.60      4.367   -67.103
5120.00      4.315   -68.080
5194.47      4.265   -69.085
5270.03      4.209   -70.098
5346.68      4.151   -71.097
5424.45      4.095   -72.095
5503.35      4.040   -73.121
5583.40      3.982   -74.185
5664.61      3.918   -75.263
5747.01      3.849   -76.312
5830.60      3.785   -77.321
5915.41      3.732   -78.345
6001.45      3.687   -79.471
6088.74      3.637   -80.723
6177.30      3.570   -82.039
6267.15      3.488   -83.334
6358.31      3.403   -84.580
6450.80      3.324   -85.839
6544.62      3.242   -87.182
6639.82      3.143   -88.576
6736.40      3.027   -89.915
6834.38      2.908   -91.138
6933.79      2.802   -92.297
7034.64      2.709   -93.506
7136.96      2.618   -94.815
7240.77      2.520   -96.187
7346.09      2.416   -97.581
7452.94      2.306   -98.998
7561.35      2.187  -100.387
7671.33      2.071  -101.797
7782.91      1.954  -103.277
7896.12      1.828  -104.804
8010.97      1.694  -106.330
8127.49      1.560  -107.867
8245.71      1.424  -109.476
8365.65      1.274  -111.160
8487.33      1.105  -112.831
8610.78      0.929  -114.407
8736.03      0.763  -115.967
8863.09      0.599  -117.623
8992.01      0.422  -119.346
9122.80      0.236  -121.064
9255.50      0.047  -122.812
9390.12     -0.153  -124.618
9526.70     -0.367  -126.423
9665.27     -0.585  -128.213
9805.86     -0.811  -130.058
9948.49     -1.048  -131.965
10093.2     -1.307  -133.877
10240.0     -1.575  -135.673
10388.9     -1.827  -137.475
10540.1     -2.085  -139.444
10693.4     -2.365  -141.428
10848.9     -2.636  -143.466
11006.7     -2.928  -145.811
11166.8     -3.289  -148.210
11329.2     -3.684  -150.329
11494.0     -4.070  -152.305
11661.2     -4.451  -154.337
11830.8     -4.846  -156.503
12002.9     -5.269  -158.750
12177.5     -5.723  -160.990
12354.6     -6.198  -163.275
12534.3     -6.709  -165.644
12716.6     -7.264  -167.992
12901.6     -7.854  -170.275
13089.2     -8.473  -172.509
13279.6     -9.115  -174.838
13472.8     -9.819  -177.306
13668.8    -10.584  -179.809
13867.6    -11.442   177.559
14069.3    -12.404   175.135
14273.9    -13.457   172.776
14481.5    -14.654   170.274
14692.2    -16.047   168.261
14905.9    -17.583   166.424
15122.7    -19.411   164.854
15342.7    -21.667   162.762
15565.8    -25.027   162.902
15792.2    -29.532   167.616
16021.9    -41.550  -150.279
16255.0    -36.811   -82.670
16491.4    -28.720   -54.384
16731.3    -24.669   -51.706
16974.7    -22.023   -51.941
17221.6    -19.995   -54.228
17472.1    -18.554   -56.471
17726.2    -17.247   -59.386
17984.0    -16.314   -62.376
18245.6    -15.426   -65.265
18511.0    -14.715   -68.422
18780.2    -14.072   -71.657
19053.4    -13.540   -75.042
19330.5    -13.074   -78.480
19611.7    -12.695   -82.081
19897.0    -12.377   -85.691
20186.4    -12.102   -89.347
20480.0    -11.912   -93.266
20777.9    -11.760   -96.957
21080.1    -11.661  -100.830
21386.7    -11.608  -104.708
21697.8    -11.588  -108.618
22013.4    -11.632  -112.786
22333.6    -11.708  -116.845
22658.4    -11.858  -121.022
22988.0    -12.048  -125.363
23322.4    -12.295  -129.521
23661.6    -12.597  -133.864
24005.8    -12.966  -138.201
24355.0    -13.372  -142.502
24709.2    -13.848  -147.002
25068.6    -14.446  -151.827
25433.2    -15.123  -156.255
25803.2    -15.894  -160.792
26178.5    -16.809  -165.441
26559.3    -17.861  -169.784
26945.6    -19.014  -174.441
27337.5    -20.585  -179.220
27735.2    -22.405   176.600
28138.6    -24.755   172.777
28547.9    -27.958   170.273
28963.1    -33.234   170.501
29384.4    -48.040  -128.975
29811.8    -37.933   -68.166
30245.4    -30.732   -51.713
30685.3    -26.943   -52.471
31131.7    -24.464   -56.356
31584.5    -22.678   -60.521
32043.9    -21.253   -65.650
32510.0    -20.289   -70.777
32982.8    -19.468   -75.928
33462.6    -18.798   -81.512
33949.3    -18.382   -87.296
34443.1    -18.073   -92.872
34944.1    -17.883   -98.442
35452.4    -17.844  -104.079
35968.0    -17.897  -109.618
36491.2    -18.133  -115.120
37022.0    -18.484  -120.338
37560.5    -18.983  -125.081
38106.8    -19.631  -129.645
38661.1    -20.491  -133.083
39223.4    -21.614  -135.222
39793.9    -23.002  -133.100
