Freq[Hz]     dBSPL  Phase[Deg]
5.00000      0.891    -0.008
5.07273      0.891    -0.008
5.14651      0.891    -0.008
5.22137      0.891    -0.008
5.29732      0.891    -0.008
5.37437      0.891    -0.008
5.45254      0.891    -0.008
5.53185      0.891    -0.008
5.61231      0.891    -0.008
5.69394      0.891    -0.008
5.77676      0.891    -0.009
5.86079      0.891    -0.009
5.94604      0.891    -0.009
6.03252      0.891    -0.009
6.12027      0.891    -0.009
6.20929      0.891    -0.009
6.29961      0.891    -0.009
6.39124      0.892    -0.009
6.48420      0.892    -0.009
6.57851      0.892    -0.009
6.67420      0.892    -0.010
6.77128      0.892    -0.010
6.86977      0.892    -0.010
6.96969      0.892    -0.010
7.07107      0.892    -0.010
7.17392      0.892    -0.010
7.27827      0.892    -0.010
7.38413      0.892    -0.010
7.49154      0.892    -0.010
7.60050      0.892    -0.011
7.71105      0.892    -0.011
7.82321      0.892    -0.011
7.93701      0.892    -0.011
8.05245      0.892    -0.011
8.16958      0.893    -0.011
8.28841      0.893    -0.011
8.40896      0.893    -0.011
8.53128      0.893    -0.012
8.65537      0.893    -0.012
8.78126      0.893    -0.012
8.90899      0.893    -0.012
9.03857      0.893    -0.012
9.17004      0.893    -0.012
9.30342      0.893    -0.013
9.43874      0.893    -0.013
9.57603      0.893    -0.013
9.71532      0.894    -0.013
9.85663      0.894    -0.013
10.0000      0.894    -0.013
10.1455      0.894    -0.014
10.2930      0.894    -0.014
10.4427      0.894    -0.014
10.5946      0.894    -0.014
10.7487      0.894    -0.014
10.9051      0.895    -0.014
11.0637      0.895    -0.015
11.2246      0.895    -0.015
11.3879      0.895    -0.015
11.5535      0.895    -0.015
11.7216      0.895    -0.015
11.8921      0.895    -0.016
12.0650      0.896    -0.016
12.2405      0.896    -0.016
12.4186      0.896    -0.016
12.5992      0.896    -0.017
12.7825      0.896    -0.017
12.9684      0.896    -0.017
13.1570      0.897    -0.017
13.3484      0.897    -0.018
13.5426      0.897    -0.018
13.7395      0.897    -0.018
13.9394      0.897    -0.019
14.1421      0.898    -0.019
14.3478      0.898    -0.019
14.5565      0.898    -0.019
14.7683      0.898    -0.020
14.9831      0.899    -0.020
15.2010      0.899    -0.021
15.4221      0.899    -0.021
15.6464      0.899    -0.022
15.8740      0.900    -0.023
16.1049      0.900    -0.024
16.3392      0.900    -0.025
16.5768      0.901    -0.026
16.8179      0.901    -0.026
17.0626      0.901    -0.027
17.3107      0.901    -0.028
17.5625      0.902    -0.029
17.8180      0.902    -0.030
18.0771      0.902    -0.031
18.3401      0.903    -0.032
18.6068      0.903    -0.033
18.8775      0.904    -0.034
19.1521      0.904    -0.035
19.4306      0.904    -0.036
19.7133      0.905    -0.037
20.0000      0.905    -0.038
20.2909      0.906    -0.039
20.5860      0.906    -0.041
20.8855      0.907    -0.042
21.1893      0.907    -0.043
21.4975      0.908    -0.044
21.8102      0.908    -0.045
22.1274      0.909    -0.047
22.4492      0.909    -0.048
22.7758      0.910    -0.050
23.1071      0.910    -0.051
23.4432      0.911    -0.052
23.7841      0.912    -0.054
24.1301      0.912    -0.055
24.4811      0.913    -0.057
24.8372      0.914    -0.058
25.1984      0.914    -0.060
25.5649      0.915    -0.062
25.9368      0.916    -0.063
26.3141      0.916    -0.065
26.6968      0.917    -0.067
27.0851      0.918    -0.069
27.4791      0.919    -0.070
27.8788      0.920    -0.072
28.2843      0.920    -0.074
28.6957      0.921    -0.076
29.1131      0.922    -0.078
29.5365      0.923    -0.081
29.9661      0.924    -0.083
30.4020      0.925    -0.085
30.8442      0.926    -0.087
31.2929      0.927    -0.090
31.7480      0.928    -0.092
32.2098      0.929    -0.095
32.6783      0.931    -0.097
33.1536      0.932    -0.100
33.6359      0.933    -0.103
34.1251      0.934    -0.105
34.6215      0.935    -0.108
35.1250      0.937    -0.111
35.6359      0.938    -0.114
36.1543      0.940    -0.117
36.6802      0.941    -0.121
37.2137      0.942    -0.124
37.7550      0.944    -0.127
38.3041      0.945    -0.131
38.8613      0.947    -0.135
39.4265      0.949    -0.139
40.0000      0.950    -0.142
40.5818      0.952    -0.146
41.1721      0.954    -0.150
41.7710      0.956    -0.155
42.3785      0.958    -0.159
42.9949      0.960    -0.164
43.6203      0.962    -0.168
44.2548      0.964    -0.173
44.8985      0.966    -0.178
45.5515      0.968    -0.183
46.2141      0.970    -0.189
46.8863      0.973    -0.194
47.5683      0.975    -0.200
48.2602      0.977    -0.206
48.9621      0.980    -0.212
49.6743      0.982    -0.218
50.3968      0.985    -0.225
51.1299      0.988    -0.231
51.8736      0.991    -0.238
52.6281      0.993    -0.245
53.3936      0.996    -0.253
54.1702      0.999    -0.261
54.9581      1.002    -0.269
55.7575      1.006    -0.277
56.5685      1.009    -0.285
57.3914      1.012    -0.294
58.2261      1.016    -0.303
59.0730      1.019    -0.313
59.9323      1.023    -0.323
60.8040      1.027    -0.333
61.6884      1.031    -0.343
62.5857      1.035    -0.354
63.4960      1.039    -0.365
64.4196      1.043    -0.377
65.3566      1.047    -0.389
66.3073      1.052    -0.402
67.2717      1.056    -0.415
68.2502      1.061    -0.428
69.2429      1.065    -0.442
70.2501      1.070    -0.457
71.2719      1.075    -0.472
72.3086      1.081    -0.487
73.3603      1.086    -0.503
74.4274      1.091    -0.520
75.5099      1.097    -0.537
76.6083      1.103    -0.555
77.7226      1.108    -0.574
78.8531      1.114    -0.593
80.0000      1.121    -0.613
81.1636      1.127    -0.634
82.3442      1.133    -0.656
83.5419      1.140    -0.678
84.7570      1.147    -0.701
85.9899      1.154    -0.725
87.2406      1.161    -0.750
88.5096      1.168    -0.776
89.7970      1.176    -0.803
91.1031      1.184    -0.831
92.4282      1.192    -0.860
93.7726      1.200    -0.890
95.1366      1.208    -0.921
96.5204      1.217    -0.954
97.9243      1.225    -0.987
99.3486      1.234    -1.022
100.794      1.243    -1.058
102.260      1.253    -1.095
103.747      1.262    -1.134
105.256      1.272    -1.174
106.787      1.282    -1.216
108.340      1.292    -1.260
109.916      1.303    -1.305
111.515      1.314    -1.351
113.137      1.325    -1.399
114.783      1.336    -1.449
116.452      1.347    -1.501
118.146      1.359    -1.555
119.865      1.371    -1.611
121.608      1.383    -1.669
123.377      1.396    -1.729
125.171      1.408    -1.791
126.992      1.421    -1.856
128.839      1.435    -1.922
130.713      1.448    -1.992
132.615      1.462    -2.064
134.543      1.476    -2.138
136.500      1.491    -2.215
138.486      1.505    -2.295
140.500      1.520    -2.377
142.544      1.535    -2.463
144.617      1.551    -2.552
146.721      1.567    -2.644
148.855      1.583    -2.739
151.020      1.599    -2.837
153.217      1.616    -2.938
155.445      1.633    -3.044
157.706      1.650    -3.153
160.000      1.667    -3.266
162.327      1.685    -3.382
164.688      1.703    -3.503
167.084      1.721    -3.627
169.514      1.740    -3.756
171.980      1.759    -3.889
174.481      1.778    -4.027
177.019      1.797    -4.170
179.594      1.817    -4.317
182.206      1.837    -4.468
184.856      1.857    -4.625
187.545      1.877    -4.787
190.273      1.898    -4.954
193.041      1.919    -5.127
195.849      1.940    -5.305
198.697      1.961    -5.488
201.587      1.982    -5.678
204.520      2.004    -5.873
207.494      2.026    -6.074
210.512      2.047    -6.282
213.574      2.070    -6.496
216.681      2.092    -6.716
219.833      2.114    -6.943
223.030      2.137    -7.177
226.274      2.159    -7.417
229.565      2.182    -7.665
232.905      2.204    -7.920
236.292      2.227    -8.182
239.729      2.250    -8.452
243.216      2.272    -8.729
246.754      2.295    -9.013
250.343      2.318    -9.306
253.984      2.340    -9.607
257.678      2.363    -9.916
261.426      2.385   -10.233
265.229      2.407   -10.558
269.087      2.429   -10.892
273.001      2.451   -11.234
276.972      2.473   -11.585
281.000      2.494   -11.945
285.088      2.515   -12.314
289.234      2.536   -12.692
293.441      2.556   -13.078
297.709      2.576   -13.474
302.040      2.595   -13.880
306.433      2.614   -14.294
310.890      2.633   -14.718
315.412      2.651   -15.151
320.000      2.668   -15.594
324.655      2.685   -16.046
329.377      2.701   -16.508
334.168      2.716   -16.979
339.028      2.731   -17.459
343.959      2.745   -17.949
348.962      2.758   -18.449
354.038      2.770   -18.958
359.188      2.781   -19.476
364.412      2.791   -20.004
369.713      2.800   -20.540
375.090      2.808   -21.086
380.546      2.815   -21.641
386.081      2.821   -22.204
391.697      2.825   -22.777
397.394      2.828   -23.357
403.175      2.830   -23.946
409.039      2.831   -24.543
414.989      2.830   -25.147
421.025      2.828   -25.760
427.149      2.824   -26.379
433.362      2.819   -27.005
439.665      2.812   -27.638
446.060      2.803   -28.276
452.548      2.793   -28.921
459.131      2.782   -29.571
465.809      2.768   -30.226
472.584      2.753   -30.885
479.458      2.736   -31.547
486.432      2.718   -32.213
493.507      2.697   -32.882
500.686      2.675   -33.553
507.968      2.651   -34.226
515.357      2.626   -34.899
522.853      2.599   -35.572
530.458      2.570   -36.245
538.174      2.540   -36.918
546.002      2.508   -37.588
553.943      2.474   -38.255
562.001      2.439   -38.920
570.175      2.403   -39.580
578.469      2.366   -40.237
586.883      2.327   -40.888
595.419      2.288   -41.534
604.080      2.248   -42.173
612.866      2.207   -42.805
621.780      2.166   -43.432
630.824      2.125   -44.051
640.000      2.084   -44.664
649.309      2.043   -45.268
658.753      2.002   -45.866
668.335      1.962   -46.458
678.056      1.924   -47.044
687.919      1.886   -47.625
697.925      1.850   -48.202
708.077      1.816   -48.775
718.376      1.784   -49.348
728.825      1.754   -49.921
739.426      1.726   -50.497
750.181      1.701   -51.078
761.093      1.679   -51.666
772.163      1.660   -52.263
783.394      1.644   -52.875
794.789      1.631   -53.502
806.349      1.620   -54.148
818.078      1.613   -54.816
829.977      1.609   -55.509
842.050      1.607   -56.233
854.298      1.607   -56.988
866.724      1.610   -57.778
879.330      1.614   -58.606
892.120      1.619   -59.474
905.097      1.625   -60.386
918.262      1.631   -61.343
931.618      1.637   -62.346
945.169      1.642   -63.397
958.917      1.645   -64.496
972.864      1.646   -65.646
987.015      1.644   -66.844
1001.37      1.638   -68.091
1015.94      1.628   -69.385
1030.71      1.613   -70.726
1045.71      1.593   -72.111
1060.92      1.567   -73.539
1076.35      1.533   -75.006
1092.00      1.493   -76.508
1107.89      1.445   -78.042
1124.00      1.389   -79.605
1140.35      1.324   -81.192
1156.94      1.250   -82.797
1173.77      1.168   -84.415
1190.84      1.076   -86.042
1208.16      0.975   -87.672
1225.73      0.865   -89.297
1243.56      0.747   -90.913
1261.65      0.620   -92.514
1280.00      0.485   -94.094
1298.62      0.344   -95.649
1317.51      0.196   -97.173
1336.67      0.043   -98.663
1356.11     -0.114  -100.116
1375.84     -0.273  -101.532
1395.85     -0.434  -102.912
1416.15     -0.594  -104.257
1436.75     -0.753  -105.572
1457.65     -0.908  -106.865
1478.85     -1.060  -108.146
1500.36     -1.206  -109.424
1522.19     -1.347  -110.712
1544.33     -1.483  -112.025
1566.79     -1.613  -113.378
1589.58     -1.738  -114.785
1612.70     -1.861  -116.258
1636.16     -1.981  -117.811
1659.95     -2.103  -119.452
1684.10     -2.227  -121.191
1708.60     -2.356  -123.030
1733.45     -2.494  -124.970
1758.66     -2.643  -127.010
1784.24     -2.805  -129.145
1810.19     -2.982  -131.369
1836.52     -3.179  -133.669
1863.24     -3.395  -136.034
1890.34     -3.632  -138.449
1917.83     -3.893  -140.901
1945.73     -4.177  -143.371
1974.03     -4.486  -145.843
2002.74     -4.818  -148.300
2031.87     -5.173  -150.728
2061.43     -5.551  -153.114
2091.41     -5.948  -155.447
2121.83     -6.365  -157.721
2152.69     -6.798  -159.936
2184.01     -7.247  -162.097
2215.77     -7.708  -164.213
2248.00     -8.183  -166.302
2280.70     -8.670  -168.386
2313.87     -9.172  -170.492
2347.53     -9.693  -172.643
2381.68    -10.237  -174.865
2416.32    -10.811  -177.176
2451.46    -11.425  -179.592
2487.12    -12.089   177.886
2523.30    -12.816   175.265
2560.00    -13.620   172.561
2597.24    -14.518   169.804
2635.01    -15.531   167.040
2673.34    -16.683   164.330
2712.23    -18.009   161.756
2751.68    -19.556   159.435
2791.70    -21.400   157.560
2832.31    -23.748   155.889
2873.50    -26.973   155.061
2915.30    -32.149   157.706
2957.70    -45.647  -144.340
3000.72    -38.603   -72.643
3044.37    -29.824   -57.221
3088.65    -25.899   -57.082
3133.58    -23.343   -59.160
3179.16    -21.489   -61.969
3225.40    -20.070   -65.049
3272.31    -18.948   -68.194
3319.91    -18.036   -71.295
3368.20    -17.276   -74.304
3417.19    -16.624   -77.224
3466.89    -16.047   -80.101
3517.32    -15.522   -83.009
3568.48    -15.038   -86.045
3620.39    -14.591   -89.305
3673.05    -14.187   -92.856
3726.47    -13.835   -96.730
3780.67    -13.549  -100.913
3835.67    -13.339  -105.359
3891.46    -13.212  -109.980
3948.06    -13.172  -114.674
4005.49    -13.215  -119.336
4063.75    -13.331  -123.873
4122.86    -13.506  -128.223
4182.82    -13.722  -132.379
4243.66    -13.962  -136.398
4305.39    -14.218  -140.392
4368.01    -14.490  -144.498
4431.55    -14.793  -148.843
4496.01    -15.151  -153.501
4561.40    -15.591  -158.462
4627.75    -16.140  -163.651
4695.06    -16.818  -168.940
4763.35    -17.638  -174.182
4832.64    -18.607  -179.247
4902.93    -19.731   175.934
4974.24    -21.027   171.342
5046.60    -22.540   166.900
5120.00    -24.378   162.533
5194.47    -26.617   158.639
5270.03    -29.564   156.098
5346.68    -33.890   156.530
5424.45    -44.058   177.842
5503.35    -44.432  -110.067
5583.40    -34.995   -68.178
5664.61    -30.216   -67.110
5747.01    -27.172   -71.300
5830.60    -25.046   -77.419
5915.41    -23.536   -84.361
6001.45    -22.482   -91.467
6088.74    -21.765   -98.261
6177.30    -21.273  -104.481
6267.15    -20.901  -110.170
6358.31    -20.573  -115.685
6450.80    -20.276  -121.549
6544.62    -20.054  -128.152
6639.82    -19.981  -135.536
6736.40    -20.113  -143.428
6834.38    -20.470  -151.415
6933.79    -21.031  -159.144
7034.64    -21.757  -166.519
7136.96    -22.624  -173.772
7240.77    -23.674   178.724
7346.09    -25.012   170.766
7452.94    -26.778   162.536
7561.35    -29.106   153.964
7671.33    -32.490   144.065
7782.91    -38.381   130.038
7896.12    -66.649   -95.443
8010.97    -39.466   -54.640
8127.49    -33.674   -63.744
8245.71    -30.421   -72.087
8365.65    -28.179   -80.445
8487.33    -26.544   -89.325
8610.78    -25.373   -98.695
8736.03    -24.582  -108.349
8863.09    -24.114  -118.161
8992.01    -23.941  -128.050
9122.80    -24.052  -137.864
9255.50    -24.424  -147.425
9390.12    -25.034  -156.782
9526.70    -25.910  -166.211
9665.27    -27.166  -175.781
9805.86    -28.899   174.992
9948.49    -31.295   166.398
10093.2    -34.917   159.677
10240.0    -41.816   163.853
10388.9    -58.142  -168.187
10540.1    -39.003   -69.157
10693.4    -33.468   -79.308
10848.9    -30.731   -91.844
11006.7    -29.284  -102.972
11166.8    -28.312  -112.448
11329.2    -27.533  -122.653
11494.0    -27.167  -134.664
11661.2    -27.373  -147.127
11830.8    -28.046  -158.972
12002.9    -29.144  -170.710
12177.5    -30.814   178.796
12354.6    -33.283   169.003
12534.3    -37.586   161.905
12716.6    -47.826  -166.989
12901.6    -45.115  -118.592
13089.2    -37.915   -96.301
13279.6    -34.184   -99.297
13472.8    -31.622  -109.127
13668.8    -30.210  -122.979
13867.6    -29.787  -136.785
14069.3    -29.886  -149.588
14273.9    -30.489  -162.974
14481.5    -31.847  -176.517
14692.2    -34.310   171.379
14905.9    -38.089   165.544
15122.7    -45.463   176.906
15342.7    -51.539  -136.435
15565.8    -39.362   -95.198
15792.2    -35.120  -106.720
16021.9    -32.954  -121.235
16255.0    -31.968  -137.259
16491.4    -31.895  -153.352
16731.3    -32.625  -169.421
16974.7    -34.360   174.828
17221.6    -37.630   160.575
17472.1    -44.431   160.000
17726.2    -54.385  -147.626
17984.0    -42.013   -94.073
18245.6    -36.825  -106.092
18511.0    -34.508  -124.864
18780.2    -33.709  -143.007
19053.4    -33.902  -161.187
19330.5    -35.189  -179.750
19611.7    -38.491   164.610
19897.0    -44.324   166.823
20186.4    -54.863  -167.780
20480.0    -42.165  -102.784
20777.9    -37.675  -117.321
21080.1    -35.588  -136.570
21386.7    -35.274  -157.249
21697.8    -36.453  -176.656
22013.4    -39.153   164.136
22333.6    -47.169   162.638
22658.4    -55.244  -141.750
22988.0    -41.805  -112.150
23322.4    -38.077  -130.788
23661.6    -36.744  -151.932
24005.8    -37.246  -174.448
24355.0    -40.089   166.501
24709.2    -45.400   162.504
25068.6    -55.449  -160.805
25433.2    -43.457  -112.277
25803.2    -39.082  -133.071
26178.5    -37.967  -157.962
26559.3    -38.895   177.822
26945.6    -42.410   157.458
27337.5    -56.142   172.737
27735.2    -47.731  -132.320
28138.6    -41.050  -137.039
28547.9    -39.268  -161.574
28963.1    -39.770   173.707
29384.4    -43.833   147.259
29811.8    -60.939  -177.687
30245.4    -46.740  -128.214
30685.3    -41.521  -143.244
31131.7    -40.279  -169.721
31584.5    -41.928   166.708
32043.9    -49.271   163.573
32510.0    -53.516  -163.662
32982.8    -43.421  -149.119
33462.6    -41.416  -173.303
33949.3    -42.402   157.929
34443.1    -48.715   149.980
34944.1    -54.769  -175.351
35452.4    -44.567  -159.806
35968.0    -42.448   171.006
36491.2    -43.948   139.447
37022.0    -54.417   151.164
37560.5    -49.792  -179.625
38106.8    -43.458   166.660
38661.1    -43.411   129.545
39223.4    -48.648   101.948
39793.9    -57.766   106.999
